,ch1 - AF7,ch2 - AF8,ch3 - TP9,ch4 - TP10,timestamp
0,-10.800831072032452,-24.791796806268394,8.945840694010258,-16.95670639909804,1731709443.1611884
1,-219.68920319713652,-201.6479258108884,-164.05445145629346,317.904585883487,1731709443.1611884
2,-220.2165290908888,-236.5598918972537,-274.48247744794935,793.4496947992593,1731709443.172202
3,-563.87967591919,-631.8373980140314,-687.9994756486267,1040.333580524195,1731709443.172202
4,-692.2330423984677,-763.7324497513473,-916.929971636273,1389.7842225339264,1731709443.1728904
5,-585.0961283678189,-661.4424460632727,-877.4104488044977,1221.3316487297416,1731709443.1728904
6,-826.9255393026397,-910.3552275141701,-1050.9156274488196,1138.3806677125394,1731709443.18649
7,-959.0487249372527,-1006.0031688809395,-1177.2606676518917,1364.581036732532,1731709443.18649
8,-694.8360127676278,-742.8787675984204,-939.3469319706783,1724.2621750710532,1731709443.2022047
9,-643.1131963804364,-704.8963436484337,-839.4729036539793,2102.2837827922776,1731709443.2022047
10,-798.543438538909,-882.1264626486227,-903.746824292466,2352.860819723457,1731709443.202938
11,-494.84112273715436,-539.3945509092882,-553.7295874394476,2083.8105469611473,1731709443.202938
12,-183.40469382703304,-252.1216156128794,-248.2620388586074,1759.458373554051,1731709443.2165756
13,-213.76146176736802,-322.6336893774569,-283.33482064306736,1977.8947102660313,1731709443.2165756
14,-100.22183901257813,-196.60654067061841,-165.32227754127234,2127.606645392254,1731709443.2322807
15,189.11926095932722,70.72150816209614,79.1475027622655,2351.6864911373705,1731709443.2322807
16,57.81511341501027,-76.97088098805398,-49.295621315948665,2259.479257729836,1731709443.2328951
17,-55.16726424638182,-179.36186197493225,-130.6496650520712,2170.5481766834855,1731709443.2328951
18,147.70734874997288,41.88313960377127,45.275228863582015,2310.480273425579,1731709443.246385
19,132.37375893164426,24.391627511009574,25.842708693817258,2286.309300011955,1731709443.246385
20,-71.49940735287964,-183.6777065237984,-145.41479007713497,2076.482212997973,1731709443.26231
21,40.2039245236665,-42.3543669981882,-29.126340854912996,2118.163398004137,1731709443.26231
22,182.5706961369142,86.9676335696131,91.60510951466858,2214.99688765686,1731709443.2629683
23,-91.61632921453565,-179.88544796872884,-141.28220062609762,1995.42362135835,1731709443.2629683
24,-131.79033453855664,-167.44280081614852,-152.5879181921482,1923.5689235096797,1731709443.2764952
25,138.56329335831106,123.85426683258265,87.39398216456175,2149.253186335787,1731709443.2764952
26,1.970927276648581,-31.83776832278818,-44.75538276974112,2125.0410740226507,1731709443.2920911
27,-150.61699091549963,-236.79550559446216,-161.6683952845633,1745.9760342137888,1731709443.2920911
28,-23.886741016991436,-98.31075013522059,-8.47835319954902,1591.1366962483153,1731709443.2929308
29,-86.14111567940563,-125.23428991623223,-58.46959590725601,1296.4138802401721,1731709443.2929308
30,-305.04493988584727,-389.0281332908198,-273.3492877613753,1063.1189210042357,1731709443.3065383
31,-152.69637529086322,-222.2136356672272,-93.89018838759512,1123.2527723917738,1731709443.3065383
32,8.231519802473485,-96.73625225387514,-71.58542505186051,994.009309723042,1731709443.3221228
33,-319.72030731197447,-436.81657492462546,-423.9363594772294,919.9892098000273,1731709443.3221228
34,-432.66902587376535,-440.23484348412603,-360.2159440321848,963.3683093860745,1731709443.3228033
35,-442.04495506267995,-283.30116154346615,-274.84524774365127,1091.0447539733723,1731709443.3228033
36,-886.9172744918615,-548.9948740955442,-532.1279252953827,916.9561509359628,1731709443.336374
37,-1279.0682242456824,-750.1902720117941,-708.643723404035,646.2958512427285,1731709443.336374
38,-1153.991010127589,-561.9798067416996,-585.1260475674644,719.5081327753142,1731709443.3521292
39,-1197.0933571169153,-621.9079636316746,-655.1369747379795,676.9144121799618,1731709443.3521292
40,-1460.3897937973961,-864.6125111561269,-870.9927804805338,454.2519885180518,1731709443.3529313
41,-1303.459851756692,-695.2287022629753,-769.4844158831984,601.1627385774627,1731709443.3529313
42,-1218.324769165367,-661.6369208609685,-736.008571379818,686.5932732652873,1731709443.3664045
43,-1242.7425759760663,-892.2279324289411,-952.6609758129343,643.2328731790185,1731709443.3664045
44,-1434.4760270044208,-943.7413144186139,-996.1747117973864,518.7241238541901,1731709443.3820698
45,-1353.2267004670575,-768.6990368925035,-833.747116821818,502.08156905137,1731709443.3820698
46,-1772.8285158956423,-1074.379759770818,-1114.348070597276,127.53058848902583,1731709443.382848
47,-2065.808538524434,-1374.2860771175474,-1381.6013214308769,610.5106185167097,1731709443.382848
48,-1843.9015746535733,-1223.6092478027567,-1317.4283780911937,518.7671327036805,1731709443.396286
49,-1799.6174192782491,-1353.6979278614745,-1462.8581277681515,80.0955674010329,1731709443.396286
50,-2087.458819367923,-1623.9954572590068,-1729.1801435127854,-270.9725813395344,1731709443.4119964
51,-2175.6120012234896,-1372.950932833366,-1628.2701629083604,40.72190066752955,1731709443.4119964
52,-2081.441320339218,-1210.1904867617413,-1453.2091858824715,321.11715994542465,1731709443.4126897
53,-2353.50034261588,-1413.9551959475502,-1596.290278387256,350.9615615918301,1731709443.4126897
54,-2341.3381879599765,-1415.911163624376,-1556.7857151553035,465.2678638375364,1731709443.426299
55,-2139.15919635538,-1328.2815677626058,-1423.364784236066,812.5661934227683,1731709443.426299
56,-2354.465236804448,-1478.2253766860813,-1537.2858767863363,837.1560356314294,1731709443.442
57,-2538.606690922752,-1603.093156406656,-1606.010278372094,869.9063395434059,1731709443.442
58,-2193.28676841408,-1231.855727205053,-1297.8462619232014,1176.8174895071425,1731709443.442727
59,-1978.911963053979,-1218.5716025624424,-1252.4139572614804,1261.3541881055571,1731709443.442727
60,-2169.2466914989054,-1577.9797282041982,-1582.396550051868,1227.489394006785,1731709443.4563248
61,-1905.7071613213047,-1386.9157192679122,-1391.1118870181963,1368.0385742415674,1731709443.4563248
62,-1799.9128713747486,-1173.7339419936761,-1246.4824759317562,1508.0828679823317,1731709443.472047
63,-2003.842136158608,-1421.0236068638042,-1423.6602363325655,1381.0160270878114,1731709443.472047
64,-2033.944590901956,-1443.7659384943545,-1258.0686859944835,1435.7008442399092,1731709443.472686
65,-1723.805907276459,-1105.0955581068993,-1107.3843768797815,1674.0858073155396,1731709443.472686
66,-1829.4132022252306,-1304.1330337487161,-1199.2363197915256,1698.383937327657,1731709443.4863076
67,-1807.4674692852423,-1317.6939109880477,-1250.3121334863827,1663.419612641912,1731709443.4863076
68,-1573.241274960339,-1030.2040614942089,-1072.7379436902702,1944.7947257081978,1731709443.5019898
69,-1476.8977122018114,-997.4126186827198,-998.6729649677873,2065.4289386789314,1731709443.5019898
70,-1752.1094701411203,-1248.2402289109305,-1187.6501097287983,1967.357542140875,1731709443.5026965
71,-1737.8903705095872,-1101.3294788515195,-1011.8972512111068,2040.3416897761635,1731709443.5026965
72,-1644.2769347187132,-961.0757507132366,-915.6958046508953,2156.4506238005124,1731709443.5163088
73,-2001.9983654804528,-1250.5589668834582,-1185.3425914561376,1855.1680232700892,1731709443.5163088
74,-2119.4499235888943,-1298.3661080170423,-1217.285076977685,1786.495980283711,1731709443.531975
75,-1835.0380117585883,-1033.917782150209,-1053.0772896232083,1947.5435521756299,1731709443.531975
76,-2108.5705546177924,-1192.6989746689796,-1200.9417141713202,1773.8139795339666,1731709443.5326831
77,-2305.835317680612,-1356.6374892266467,-1297.0683627324179,1554.2743723350577,1731709443.5326831
78,-2191.080227440223,-1121.5024992125109,-1084.3241537529975,1714.6973809343763,1731709443.5462873
79,-2508.6762715773657,-1128.073503434658,-1108.9551348611712,1722.528731441591,1731709443.5462873
80,-2765.311946436763,-1345.1185973631218,-1262.1077779466286,1445.9107711189426,1731709443.5620124
81,-2525.909730573185,-1123.9035149840638,-1094.8519721282646,1501.481944560539,1731709443.5620124
82,-2165.7872840398923,-944.6314106080681,-966.2405525520444,1803.467646282632,1731709443.5626736
83,-2171.0792424771935,-1133.391641171649,-1174.3360658865422,1726.2574116974138,1731709443.5626736
84,-2086.7295388765633,-1061.1105947280303,-1083.5537343621254,1849.019627742935,1731709443.5762665
85,-2508.663181927521,-646.0602375455201,-647.3243237305433,2236.8435132480226,1731709443.5762665
86,-2939.3481908747926,-672.7481636293232,-617.3565053856,2307.4715239112265,1731709443.591997
87,-3092.8673441559076,-873.2404603539035,-755.0446621542796,2083.354279166553,1731709443.591997
88,-2816.3578409319744,-534.9178906623274,-474.35021087992936,1822.3036524094641,1731709443.5926418
89,-2511.918764838949,-340.06910297088325,-400.76393935177475,1941.3596275988966,1731709443.5926418
90,-2514.7573489053175,-465.1911958884448,-583.2112187901512,1535.999351201579,1731709443.6062613
91,-2390.1925010811538,-338.50956468936056,-363.7277100905776,1688.9949184888974,1731709443.6062613
92,-2191.3906391365454,-138.3613387607038,-128.1364522818476,2065.08299793303,1731709443.621984
93,-2208.4894617339596,-318.9611076209694,-222.65120396204293,1863.6819055192173,1731709443.621984
94,-2134.349685012363,-261.7518579987809,-216.173697238788,1760.228792944923,1731709443.622644
95,-1801.779081452638,6.163355126976967,-57.295267321169376,2109.9692772012204,1731709443.622644
96,-1877.1418054597452,-128.90313177276403,-179.98642526753247,2103.2748562805355,1731709443.6363254
97,-1947.8520939219743,-272.44049207214266,-253.56147709582,1916.6762878913432,1731709443.6363254
98,-1514.1545955603942,47.5042092371732,16.373282006010413,2055.2695004493,1731709443.6519935
99,-1288.1823604376987,144.48729488812387,119.6880182819441,2242.8292231271043,1731709443.6519935
100,-1290.8152500065044,-9.966833381913602,-69.30408607888967,2298.2956793699414,1731709443.6526487
101,-873.0085865566507,282.74765635002404,201.4684106130153,2371.8969104979187,1731709443.6526487
102,-480.6818615049124,515.6162669910118,419.3886411311105,2455.427576008253,1731709443.666316
103,-640.1773749152198,324.8589298510924,294.2815078133717,2340.2760563725606,1731709443.666316
104,-597.0002299267799,402.9031621264294,394.9222156209871,2424.8912928700447,1731709443.6820312
105,-353.3457478135824,655.069656538777,662.4896180508658,2768.8237124951556,1731709443.6820312
106,-496.0902493223548,506.11692110355943,541.3318190863356,2782.3060518354177,1731709443.6826556
107,-559.0888640759513,420.88086121343076,496.8307495135814,2753.273208479397,1731709443.6826556
108,-307.57311225589365,711.3102720724419,753.111133877188,3029.266605509445,1731709443.6962807
109,-311.0699187144637,738.5330038499087,785.0199602991343,3133.8753471700475,1731709443.6962807
110,-539.6301646064967,502.1563670504838,595.7099644420668,3018.6004108358175,1731709443.7120287
111,-418.4985449416563,700.1840697042644,751.0953278010711,3138.7746161120012,1731709443.7120287
112,-252.40584800951183,838.5154892653227,870.966601180844,3225.0391484899446,1731709443.712675
113,-547.1585832173005,567.1857474800199,622.6409840229899,2988.999102686532,1731709443.712675
114,-584.1723730787635,569.1080560572445,621.0552664417773,2933.6074444428086,1731709443.7263417
115,-401.9420078378171,768.8598525905982,784.2458010083064,3110.4299143478274,1731709443.7263417
116,-636.7478866558522,572.5861630160362,601.9481175681576,2942.6168634360656,1731709443.742058
117,-788.5990445567295,418.8313960377127,462.8500185161829,2778.2220810838044,1731709443.742058
118,-622.0313803302124,651.7000066787004,655.0509570389986,2907.5590412514284,1731709443.7426856
119,-782.9891946231946,577.5078713577241,575.144254585728,2845.454262587242,1731709443.7426856
120,-1148.9346653874964,274.41515924874693,299.67818344943225,2597.9850825192407,1731709443.7563071
121,-974.1953197577968,417.8552821492776,434.41555915307254,2585.546175266616,1731709443.7563071
122,-817.0110645201057,504.52372372243553,514.7224309016019,2607.821019402705,1731709443.772041
123,-1081.724923283793,200.15196582861245,243.852696810849,2413.308822707273,1731709443.772041
124,-1100.7423145584762,219.92481689434499,253.92424739152193,2518.9198575560004,1731709443.7727425
125,-791.9686944168061,444.41605163458735,420.2338585210964,2570.3210425470024,1731709443.7727425
126,-911.0059701064602,264.8223158624023,260.21849901694804,2277.9207044113427,1731709443.7863328
127,-1016.9872550508007,171.4856326682493,197.21988426335156,2210.7072224076837,1731709443.7863328
128,-800.0880172206089,464.9630619911477,447.96521669253707,2408.3235360663384,1731709443.8020191
129,-863.7897331658751,447.8866787934676,430.60086119826883,2420.8035822184756,1731709443.8020191
130,-1101.419236450456,221.8508653715253,241.0776910437271,2226.325044622645,1731709443.8026495
131,-1014.2683477830142,365.82953386567533,367.78176164254546,2318.1433284347877,1731709443.8026495
132,-892.4859855258837,518.1780984606594,486.65074183419347,2434.087706861086,1731709443.8162968
133,-1142.752610760741,270.0918348999694,275.4249322367832,2238.561997277662,1731709443.8162968
134,-1127.4526800420135,307.05326616205275,307.41977635771036,2236.4863528022543,1731709443.8320005
135,-907.0678554531187,545.0941584417596,501.04187686368823,2395.892108613625,1731709443.8320005
136,-1116.4461544724181,349.66194635722786,333.03435115423054,2219.739080800675,1731709443.8326046
137,-1276.0538648813963,207.82998043764383,217.86413201875985,2076.0895235026255,1731709443.8326046
138,-1038.2859852984548,457.24016858264804,423.14724058657885,2267.8902927301824,1731709443.846281
139,-1028.4762277146801,448.16343139018863,412.3725888142362,2263.454771382734,1731709443.846281
140,-1319.8667928623036,161.3018850889057,162.77540567144752,2023.3157952278852,1731709443.8620272
141,-1223.7925029005855,292.7406690316275,269.69914540462196,2053.4294696711004,1731709443.8620272
142,-1124.348563078791,414.2799377916381,364.12413948588073,2119.199350291863,1731709443.862598
143,-1391.549455313012,160.10511710308492,136.76066157966852,1939.8300085170195,1731709443.862598
144,-1421.7229681555182,147.64751035068184,118.86524029169232,1936.9502855511382,1731709443.8762991
145,-1165.5660004904494,398.80797167494893,337.4287336021662,2115.410831636749,1731709443.8762991
146,-1332.8592053083703,218.44381651189178,190.66757954098284,2012.5261838557199,1731709443.892014
147,-1500.3319253241643,63.46984214801341,54.66985755227506,1888.9972883192822,1731709443.892014
148,-1283.690740590915,302.3260326180607,255.91013426799327,2046.8210664493963,1731709443.892611
149,-1295.837935646996,280.45135777723044,231.0397995626554,2022.377080339007,1731709443.892611
150,-1560.929524306208,9.372189288958907,3.2312735617160797,1810.0180810550228,1731709443.9062333
151,-1438.6011366555467,154.82437836565077,112.59342806600034,1870.4660840388387,1731709443.9062333
152,-1316.3550268039107,250.85378952790052,186.84914168622345,1940.6228673076257,1731709443.9219975
153,-1566.7001899378374,-16.204986508004367,-38.70796454139054,1717.1264459555969,1731709443.9219975
154,-1620.0049840062857,-30.12115424312651,-56.498668630607426,1651.046153638512,1731709443.9226336
155,-1440.6655614310876,164.84731024689972,87.4837397634983,1719.355426329188,1731709443.9226336
156,-1638.334233689122,-33.92463249806315,-74.23701412044466,1593.0777043253183,1731709443.936292
157,-1809.774987557903,-175.70423981826752,-198.48023054841906,1475.551348217763,1731709443.936292
158,-1640.129385667853,17.72338589001447,-46.468256949447095,1608.530970942229,1731709443.951995
159,-1709.732663743198,-14.8960215235129,-75.56467860471457,1597.0756573779508,1731709443.951995
160,-1991.4032289059833,-279.5687413876876,-305.67698297835886,1373.156627330929,1731709443.952633
161,-1877.7214899528772,-124.92761811986566,-181.0822159545496,1444.6560346838087,1731709443.952633
162,-1769.3616286367178,-9.069257392548025,-104.24597136490047,1483.4574967240915,1731709443.9662716
163,-2050.85267860163,-277.5491954116151,-328.2996378103271,1270.533772546798,1731709443.9662716
164,-2092.7320783054456,-271.471857983619,-326.3137509338558,1312.805861745961,1731709443.9820368
165,-1861.5314630446956,-31.83402842283249,-120.33876087423414,1501.046246215701,1731709443.9820368
166,-2023.7384039228782,-192.77688311599195,-254.85548248048872,1382.6260540187359,1731709443.9827733
167,-2190.8932324424386,-330.98488597851247,-367.56484744511545,1287.1015293505043,1731709443.9827733
168,-1939.6205741195008,-77.62536348029971,-149.7755134254694,1434.4386280048639,1731709443.996354
169,-1974.050093111582,-82.5208925222978,-151.90351650025696,1276.1361426804215,1731709443.996354
170,-2402.6688073333353,-321.65383558906615,-375.5046550510451,1681.2551955305971,1731709444.0120733
171,-2228.4754870971665,-222.09769876860082,-279.66597878653556,1918.0731405247934,1731709444.0120733
172,-2083.875995210372,-68.90391678363085,-169.23421289492399,2167.670323667582,1731709444.012929
173,-2308.1727551529184,-268.03862982429564,-345.92578630149364,1998.088300076779,1731709444.012929
174,-2251.7301850216463,-211.82419359032065,-277.81846820842475,2116.26913867658,1731709444.0263186
175,-1933.6329942904413,87.05365126859397,-19.196906472556293,2558.6806039349176,1731709444.0263186
176,-2118.9562567947432,-19.79155056551099,-110.65615988895297,2517.246252325829,1731709444.0427313
177,-2289.2862603766844,-141.33455922547728,-220.92711008246988,2435.910908089485,1731709444.0427313
178,-2041.9629364069551,106.40389363933355,-17.053943797945976,2654.620257498231,1731709444.043457
179,-1959.3148872861639,76.13314339797944,-13.792751036584377,2673.2561789774336,1731709444.043457
180,-2181.491123953834,-182.83996893372387,-226.6977757140994,2424.0965641294606,1731709444.0563352
181,-2032.2466763220727,-68.38033078983426,-119.99469007831067,2573.0792187643237,1731709444.0563352
182,-1897.9954876126722,29.4217929514125,-36.72955746483058,2625.119926647749,1731709444.0720754
183,-2116.532801623456,-233.43333553429693,-236.19712160155177,2460.250177001115,1731709444.0720754
184,-2102.0444291951135,-236.09614430274814,-237.01615969184786,2478.220396288205,1731709444.0728579
185,-1902.8536176551133,-28.441939163021743,-66.86567130777985,2593.6711079203524,1731709444.0728579
186,-2117.583713511005,-205.33172726724297,-213.9933355646208,2466.6566256252117,1731709444.0863645
187,-2277.44573711697,-376.45832953974605,-351.62913373392075,2327.5921856728382,1731709444.0863645
188,-1998.9765263162553,-111.07876858394593,-99.91890711616725,2508.464967229869,1731709444.1023612
189,-1986.316964966245,-42.28330889903009,-50.37645240314305,2489.144644058775,1731709444.1023612
190,-2170.985744978301,-221.52549407538027,-198.37925324961543,2358.7081533041783,1731709444.1031203
191,-2052.5206739818677,-58.79122730344534,-75.78907260205597,2550.7108771293424,1731709444.1031203
192,-1902.9882540535182,65.61280482262373,23.72218541894108,2697.7899226867594,1731709444.1166735
193,-2026.4647909905761,-128.45060387812555,-131.58837994094938,2479.0095151788555,1731709444.1166735
194,-1999.3953951112926,-78.61269706860185,-95.30013067089021,2393.3097076942213,1731709444.1321573
195,-1788.438858310692,176.0071717146784,101.1942130010575,2629.8359404918738,1731709444.1321573
196,-1966.0878461059183,-77.42340888269246,-92.57374360319227,2442.3958946126513,1731709444.1328397
197,-2232.5295386491343,-221.34223897755146,-282.10813345760107,2129.246591522824,1731709444.1328397
198,113.94166200002655,226.00589422229677,165.38772579049692,-319.24534001760185,1731709444.1471293
199,53.77789141284302,188.37128096818924,113.35449770698324,-382.0606996733695,1731709444.1478443
200,-263.38058442948386,-90.06427073292434,-107.91294327145442,-617.8314726799726,1731709444.1478443
201,-203.29161184141412,21.33986914716661,-22.39265098469332,-662.7140120482072,1731709444.1614635
202,-133.38914176961407,122.07407445367426,29.97342819487676,-649.9310339996591,1731709444.1614635
203,-387.43680585967377,-152.15408979728818,-131.42569429287687,-839.6038001524284,1731709444.1774735
204,-383.9138201014139,-96.24258545972407,-150.41316636791453,-791.4338887231424,1731709444.1774735
205,-294.2983373631723,132.6579913282767,28.974874906707555,-567.6345354747027,1731709444.1778464
206,-393.2747896905057,-72.39324344228953,-128.01864543324336,-667.9984906855971,1731709444.1778464
207,-483.3166210236959,-154.06517867464572,-194.151296349708,-807.3621226344258,1731709444.1914537
208,-258.3242396893911,2.4683339707553387,-22.957375878002495,-627.054065970704,1731709444.1914537
209,-256.6861635087989,8.156721803359687,-55.63288179086521,-568.6704877624288,1731709444.207111
210,-365.24049962265417,-251.73266601748765,-241.38623279007152,-678.0663013663143,1731709444.207111
211,-93.44701024284586,-140.42202363628894,-127.01635224511847,-622.18097632844,1731709444.2078488
212,78.21813762327656,-75.33654470741749,-102.75562123255804,-559.2646393738687,1731709444.2078488
213,-194.90675614075735,-327.2375062229112,-343.7772137769498,-679.1284329537302,1731709444.22148
214,-252.04120776383206,-379.05756000895053,-394.56131527526304,-678.93769805599,1731709444.22148
215,-10.574567124713212,-161.27570578921586,-202.3416772526689,-497.65726740378886,1731709444.2371163
216,-104.60313181066886,-307.6217309553176,-330.1751976381056,-642.5896103866398,1731709444.2371163
217,-188.42550951754674,-408.73366615734994,-400.4217385058291,-759.8579133972526,1731709444.2378087
218,88.71603679889813,-109.10410140734166,-128.0373449330218,-534.3307263692841,1731709444.2378087
219,125.47925336332992,-46.82354744523764,-65.22946507716551,-388.1043780017644,1731709444.2514799
220,-75.54036925500259,-253.13138860091567,-217.21899927640334,-519.8012150414288,1731709444.2514799
221,84.57222764799371,-53.211296569556,-61.182893325109035,-385.16107673663646,1731709444.26715
222,233.43894538423046,90.4494804283604,47.76787218404934,-161.93766808137298,1731709444.26715
223,-47.65941508533433,-155.91268925275654,-209.95237366249785,-490.7421923857182,1731709444.267881
224,-106.51048078807071,-191.58011513017118,-292.17033428838477,-778.9650622708723,1731709444.267881
225,32.42306266585365,1.8175913784652948,-110.44485554145649,-532.860945686698,1731709444.2814631
226,-172.7628085031174,-237.71178108360618,-257.85675219492987,-761.8475401736796,1731709444.2814631
227,-348.0406997264363,-451.922030845657,-393.9853706820868,-1009.2456621425226,1731709444.297192
228,-102.32927263760939,-189.96447834931314,-224.7960365866311,-1105.3610910037532,1731709444.297192
229,-51.81070403615013,-136.3941513840109,-184.4387761647813,-1446.870055457577,1731709444.2978988
230,-280.0081796324812,-329.27949159871787,-331.52530152210966,-1652.5084545211866,1731709444.2978988
231,-120.56128492159769,-155.9949670517817,-247.71414351509884,-1474.320921132341,1731709444.3114617
232,-28.847718308214098,2.535652169957757,-256.00550171686336,-1416.4833683175966,1731709444.3114617
233,-242.5007229768671,-283.92572483606637,-536.2324654967524,-1765.621728681028,1731709444.3271086
234,-210.40116165718064,-327.17392792366445,-512.8319114740007,-1543.4006132138893,1731709444.3271086
235,55.6740206903778,-148.30573274288327,-305.241284633521,-1416.8797977128997,1731709444.3279147
236,12.934443996753544,-252.05429741367698,-399.74107671389356,-1665.6953417649493,1731709444.3279147
237,-220.13238134188578,-340.66000716388226,-477.6544124907814,-1559.0146955288947,1731709444.3414476
238,-7.3432935629971325,-199.10105394106358,-286.47446665586904,-1884.922667317558,1731709444.3414476
239,-39.94400147674605,-74.26319342013448,-159.0149362660013,-2076.8992118430324,1731709444.3572524
240,-525.3792758253403,-370.37351231183857,-419.34189238166437,-2461.312308588531,1731709444.3572524
241,-619.8603684059344,-342.85158853791654,-411.5404610740952,-2283.465106095653,1731709444.35807
242,-217.79494386957958,-288.63425888027996,-419.31197318201885,-2294.64366706321,1731709444.35807
243,-411.6676176725887,-511.0161900455132,-555.9828771627508,-2484.3538322155364,1731709444.3715959
244,-515.0047933482565,-545.5466863363981,-559.0645547262393,-2572.4434357718565,1731709444.3715959
245,-255.53427432244644,-214.27756796125323,-243.5067560649477,-2860.0884911138564,1731709444.38729
246,-139.87412829278037,-160.49032679852098,-164.90153879625723,-2772.8441049475223,1731709444.38729
247,-255.7661481196992,-237.25177338905632,-205.36725631682202,-2433.0218353737146,1731709444.388206
248,84.5759675479494,68.21203529182822,56.80721037695184,-2024.7444370109588,1731709444.388206
249,282.65602880110964,247.99276606179774,232.0888415002264,-1703.6067076157779,1731709444.4015508
250,160.55577504774556,50.469949902035296,54.92604069923982,-1840.1654145978391,1731709444.4015508
251,382.3767212196253,244.66051520127803,194.5963444444351,-1707.4475848702714,1731709444.4174397
252,528.3450164902024,428.92164611816406,363.5201456430368,-1635.4058920238167,1731709444.4174397
253,322.6953977267258,174.18210053630173,146.3815542156808,-1932.5334637034684,1731709444.4178724
254,283.411488592159,154.90665616467595,115.69941497920081,-1974.087492111139,1731709444.4178724
255,521.0559514765628,406.8599762795493,324.29607490776107,-1801.8351799519733,1731709444.4317384
256,393.4580447883345,214.96944945305586,167.23149646865204,-2097.1339405532926,1731709444.4317384
257,218.5279642608948,73.27959973178804,18.473235831130296,-2388.0233591068536,1731709444.4474947
258,405.3247473477386,294.1805305145681,197.4461482106708,-2207.6928630433977,1731709444.4474947
259,410.9832159806974,284.2174370326102,205.43083461606875,-2190.021835752763,1731709444.4479775
260,248.2526891087182,65.93443621881306,1.5875875311903656,-2507.34486719314,1731709444.4479775
261,306.688625916373,142.74076160881668,29.711635197978467,-2689.870684530586,1731709444.4616673
262,383.6445473046042,221.5180142754689,75.66752585349604,-2719.730045776814,1731709444.4616673
263,141.9722121679224,19.35024237073958,-78.48367052013054,-2764.4480295469984,1731709444.4776163
264,116.80268546612933,-62.69194295722991,-123.27645228942856,-2707.055524826981,1731709444.4776163
265,348.8485181168653,227.41583650559187,123.74019988393411,-2225.1806352362037,1731709444.477995
266,219.22732555260882,118.5024699959904,52.62226232653484,-2164.695233252831,1731709444.477995
267,78.60334731871262,-13.25794534292072,-45.73710650810972,-2283.511854845099,1731709444.4914432
268,273.811165405903,199.6545591345057,124.48817987507209,-2100.095941318199,1731709444.4914432
269,278.2653862531297,220.4409230882302,168.5853402526118,-1968.9189503723755,1731709444.507352
270,59.36530194664374,3.500546358525753,-1.9092189273796976,-2053.9717551646754,1731709444.507352
271,196.2605999247171,144.56957268714905,117.59928415669128,-2050.127138010226,1731709444.5079467
272,341.93718299875036,276.4272254249081,218.07169646630064,-1755.1836679046974,1731709444.5079467
273,166.47977657755837,127.0257019950077,142.24896476464346,-1709.2763959486037,1731709444.521948
274,178.59331253403798,149.96998822316527,185.04837985755876,-1474.7846687268466,1731709444.521948
275,410.6877638841979,428.4616384236142,454.2800377677195,-1038.0241923015565,1731709444.5375297
276,309.1569598871283,326.3100110339001,378.2254322688095,-990.897712959908,1731709444.5375297
277,225.74223127542064,224.60343173891306,283.43018809193745,-1102.7805600343272,1731709444.5379128
278,446.4935660599731,432.58674807474017,425.1050782133825,-1023.8985901689157,1731709444.5379128
279,463.70084575610235,440.2161439843476,441.91218861425295,-1034.5012065432966,1731709444.5518682
280,258.2457017903216,228.60886459145695,292.50692528439686,-1106.1502098944038,1731709444.5518682
281,398.3984526298009,382.31127297040075,418.9267634865828,-883.1137962369248,1731709444.5672927
282,485.8111342941411,456.79886038787663,479.4346048696898,-819.142807494849,1731709444.5672927
283,280.8122581229545,244.31270450539887,320.3093415549956,-929.6680708853528,1731709444.5679188
284,285.7414462645538,246.91567487455904,318.40947237750515,-936.5008681043983,1731709444.5679188
285,501.97498190263286,465.0042008906603,488.8703724578954,-759.5811608005315,1731709444.581735
286,354.4471483505331,303.50036120414734,357.005239920225,-910.4711644127965,1731709444.581735
287,197.5920043089427,175.68928021844476,261.00948785757646,-966.2218530522659,1731709444.5974476
288,396.19565155589953,391.75452035851777,441.863569914829,-725.8136041006073,1731709444.5974476
289,409.6667711962946,397.7383602876216,462.0964286751114,-665.1599066192284,1731709444.59789
290,235.19295846344903,204.53512857668102,320.96756394719705,-789.1488098502159,1731709444.59789
291,429.46580156171694,391.42540916241705,467.66887960908934,-684.3867322914302,1731709444.6279795
292,574.0802530483343,486.36650943756104,538.14355437411,-620.1053318530321,1731709444.6279795
293,336.20391636667773,267.91895302571356,343.2461479832418,-839.7085173511878,1731709444.6285508
294,232.9116194904782,239.31619816459715,278.1083104549907,-970.9902254957706,1731709444.6285508
295,392.1229005041532,431.6592528857291,418.6986295892857,-929.2005833908916,1731709444.6293354
296,228.22926474595442,220.5531200869009,253.37635204801336,-1230.8758734166622,1731709444.6293354
297,34.28927274374291,-0.4263485949486494,62.86584830516949,-1577.415003310889,1731709444.6415887
298,155.88090010313317,137.26180817373097,188.7396611138247,-1626.1458997335285,1731709444.6415887
299,103.08473242865875,152.68515559099615,181.00554800545797,-1635.353533424437,1731709444.6572542
300,-145.0538897314109,-8.42225470021367,38.32836469588801,-1775.3454685658216,1731709444.6572542
301,6.25498267589137,159.5927508091554,165.42138489009812,-1667.5353725431487,1731709444.6581547
302,159.70681775780395,322.80946467537433,307.91905300179496,-1499.1351573383436,1731709444.6581547
303,-10.855059621389955,140.45568273589015,194.7048015431501,-1437.8718561641872,1731709444.671742
304,73.12439388362691,178.1987530887127,232.66478609340265,-1455.3297091573477,1731709444.671742
305,329.0195685517974,412.4885257128626,421.83640565210953,-1428.189255178906,1731709444.6871629
306,152.74686394026503,241.8181912349537,291.21291989972815,-1497.115611362271,1731709444.6871629
307,-3.992343202698976,93.97994598653167,159.5347823598422,-1622.9408054715022,1731709444.687834
308,154.99080391367897,261.5760827008635,280.6065636253916,-1466.3885933263227,1731709444.687834
309,125.12396286753938,229.9963674750179,264.0238472218625,-1444.7644917825237,1731709444.7014947
310,-103.41384362475947,-23.587549020536244,52.13607533229515,-1636.1688316147774,1731709444.7014947
311,30.960761783178896,112.58594826608896,144.44428603863344,-1584.965861321427,1731709444.7173858
312,183.52624057559296,225.72540172562003,224.22757179336622,-1404.5306480592117,1731709444.7173858
313,16.532227754127234,30.52132353838533,81.38209298579022,-1482.9114713305607,1731709444.718083
314,-4.938537891488522,28.269903765060008,76.97649083798751,-1471.7553497627378,1731709444.718083
315,220.2707576402463,257.3425159510225,251.09501307504252,-1322.4099248321727,1731709444.7317789
316,114.99257388757542,118.66328569408506,150.37576736835763,-1407.8890782194212,1731709444.7317789
317,-23.9933281657286,-7.371342812664807,38.87065018946305,-1530.2286855699494,1731709444.7473145
318,167.79248146200553,211.55118089355528,200.5540050738491,-1390.1881317291409,1731709444.7473145
319,184.4013771652244,210.40303160715848,213.03031132603064,-1376.6048150900751,1731709444.7479093
320,-35.22424773266539,-12.44264715258032,35.54961902881041,-1542.1402669288218,1731709444.7479093
321,84.79662164533511,126.03462850674987,147.54466310190037,-1461.2761500868946,1731709444.7615557
322,226.5313501660712,278.6487259985879,266.9260095874779,-1336.9543957598507,1731709444.7615557
323,26.068972641136497,77.8123584780842,113.70978820277378,-1467.132833417505,1731709444.7772243
324,19.696183116640896,80.28069244883955,118.60905714472756,-1498.671409743838,1731709444.7772243
325,216.44110008561984,288.7688952786848,283.7518194881268,-1378.366307969205,1731709444.7779436
326,99.75622146809474,159.80592510662973,182.88671768317,-1456.145007347688,1731709444.7779436
327,-49.61912266211584,38.1282800482586,80.66777209425345,-1588.8890163749456,1731709444.7916481
328,106.19632919179276,234.72360101900995,237.5416156356223,-1495.9263231763616,1731709444.7916481
329,111.20779513241723,210.92661760095507,235.6866252576001,-1488.6783970622346,1731709444.8075123
330,-76.78575594024733,0.8826163895428181,56.05923038581386,-1678.95328710787,1731709444.8075123
331,46.87403609463945,128.49548267759383,156.60270079458132,-1632.1633987622336,1731709444.8079479
332,123.26897248951718,258.31862983945757,212.84331632824615,-1544.200951804407,1731709444.8079479
333,-65.91760666901246,43.49503648467362,57.34575597057119,-1684.4135410431772,1731709444.8379807
334,-64.84051548177376,48.71967672277242,62.09542891429737,-1703.135480221361,1731709444.8379807
335,184.07600586907938,276.199091527611,242.68397807469591,-1535.2251919107512,1731709444.8388836
336,73.05707568442449,133.97817601263523,140.80910328170285,-1616.0107708536088,1731709444.8388836
337,-66.99469785625115,-3.863316654227674,20.455382807645947,-1770.9847452174872,1731709444.8394732
338,100.5453403587453,182.96338563226163,154.92722561443225,-1705.2709630960599,1731709444.8394732
339,116.96724106417969,173.24712554737926,145.77943032281473,-1761.339543231763,1731709444.851969
340,-119.6300498326309,-65.83719881996512,-42.09070405131206,-1974.2483078092337,1731709444.851969
341,-9.48625623760745,70.35125806648284,57.24103877181187,-1884.5281078722328,1731709444.8673947
342,97.53098099445924,170.38610208127648,137.7498651179485,-1819.6333638411015,1731709444.8673947
343,-112.30358581943437,-19.391381270252168,-9.658291635569185,-1917.0427980870008,1731709444.8678827
344,-107.99896097043529,-18.8603154765442,-6.142785677220672,-1900.048692688346,1731709444.8678827
345,102.09739884035662,199.80789503268898,175.19748337427154,-1703.7675233138725,1731709444.881762
346,-12.463216602336615,81.76543273124844,79.22791061131284,-1753.295018427074,1731709444.881762
347,-155.63032680610195,-42.18233160022646,-9.011288943234831,-1839.8624827014282,1731709444.8974783
348,36.5182531173341,168.21322020702064,143.2026392533444,-1680.0602974947542,1731709444.8974783
349,88.46172360191122,164.4434010516852,149.85218137456104,-1668.2048146352172,1731709444.897958
350,-102.36667163716629,-63.0659329527989,-27.11240472877398,-1804.6326251188293,1731709444.897958
351,6.064247778151184,66.89185060746968,68.81976903462783,-1744.8503243271261,1731709444.9115975
352,139.21216600062326,199.27308933902532,186.79865303682163,-1647.5568269798532,1731709444.9115975
353,-82.94163126731291,-25.565956097096205,4.549588296096772,-1809.3224596632645,1731709444.9275236
354,-89.10498639428988,-32.810142311267555,-20.014074612874538,-1867.9453914687037,1731709444.9275236
355,127.88400903483853,170.77879157662392,153.59208133025095,-1707.283029272221,1731709444.9279437
356,19.651304317172617,33.68527890089899,49.58546356251463,-1776.5796355511993,1731709444.9279437
357,-114.91777588846162,-81.00623304024339,-42.38241624785587,-1873.4729636032134,1731709444.9417205
358,85.63809913536534,144.9622621824965,137.8620621166192,-1690.6292547695339,1731709444.9417205
359,98.25652158586308,150.49357421696186,165.07731409417465,-1641.999335645698,1731709444.9571624
360,-101.79072704399005,-34.09292799606919,9.725609834771603,-1764.451139994897,1731709444.9571624
361,44.51041932264343,117.3543207095936,123.87483628233895,-1666.0693317605183,1731709444.9581552
362,178.72420903248712,243.04861832037568,237.67999193398282,-1575.436596234329,1731709444.9581552
363,-0.7348903412930667,48.03527503088117,81.15395908849314,-1688.396534495987,1731709444.9717271
364,-24.023247365374118,55.84418613836169,79.22791061131284,-1702.5370962284505,1731709444.9717271
365,166.78644837392494,273.95889145415276,242.3511269786395,-1540.520890248008,1731709444.9875636
366,49.095536668319255,134.9916889006272,141.02601747913286,-1606.9676927607507,1731709444.9875636
367,-71.50501720281318,17.65606769081205,45.63612920930609,-1703.2888161195442,1731709444.9880288
368,134.43631375720724,226.0694725215435,206.2311732065864,-1560.61537270993,1731709444.9880288
369,156.12025370029733,230.76678686589003,216.6767137828283,-1539.6569733582437,1731709445.0014987
370,-49.99685255764052,21.975652139633894,48.43357437616214,-1691.302436761558,1731709445.0014987
371,83.19968436425552,161.94514788128436,161.0606615417637,-1607.143468058668,1731709445.0171804
372,228.0497495480813,281.4349514655769,258.8104266836308,-1505.788439359516,1731709445.0171804
373,20.511481306981295,73.44789522979409,97.22056929813698,-1651.973648827523,1731709445.0178993
374,3.9960831026546657,75.05979211069643,87.53048851294443,-1681.9339873725548,1731709445.0178993
375,208.13104238407686,277.2013847157359,254.55442053405568,-1538.2245916752145,1731709445.0315259
376,86.3187609273009,137.85645226668566,146.95001900894567,-1626.4675311297178,1731709445.0315259
377,-55.30003069480881,1.1481492863968015,39.09878408676013,-1740.4671615790576,1731709445.0472083
378,132.54018447967246,214.50196195859462,198.25022670114413,-1608.085922847502,1731709445.0472083
379,140.62584818387404,198.1660789521411,187.16142333252355,-1602.0160652194172,1731709445.0479467
380,-74.2388840704225,-19.866348564624786,19.213736022356898,-1760.277411644347,1731709445.0479467
381,22.665663681458682,113.60694095399231,108.86287786019966,-1704.5529023045674,1731709445.0615098
382,158.36793357366696,223.26080765482038,200.1837549782358,-1615.490924759768,1731709445.0615098
383,-49.98189295781776,3.6426625568419695,37.9992534997873,-1753.1603820286691,1731709445.077538
384,-65.94378596870229,3.582824157550931,28.159576716367155,-1785.8732869410887,1731709445.077538
385,126.88919564662501,208.4283644305542,187.04548643389717,-1654.2961267000064,1731709445.078006
386,3.296721810940653,76.80632539000362,86.0943669299595,-1737.4303628150374,1731709445.078006
387,-134.5260713561438,-61.738268468528986,-28.189495916012675,-1856.2357647074386,1731709445.0917268
388,41.32776446035132,134.07915331143886,117.06073856307194,-1742.572725254111,1731709445.0917268
389,46.290611701551825,131.580900141038,129.5968832145445,-1733.021020767279,1731709445.1072614
390,-159.6507192584686,-85.54647158645093,-46.50752589898184,-1886.383098250255,1731709445.1072614
391,-49.73505956074223,56.41265093162656,52.61852242657915,-1818.0439063599333,1731709445.1079683
392,78.07228152500466,191.69231212884188,159.6170601588674,-1714.0447683921084,1731709445.1079683
393,-113.69108870299533,-18.987472075037658,7.246056164149195,-1841.79601097852,1731709445.1215713
394,-134.25305865937844,-36.826794863678515,-15.679530564229935,-1884.5879462715238,1731709445.1215713
395,72.38015379244462,191.12010743562132,161.3935126378201,-1732.0411669788882,1731709445.13725
396,-37.17647550953552,66.35704491380602,66.4187532630749,-1801.102159560658,1731709445.13725
397,-184.42755646491423,-64.38237773720175,-38.649996092077345,-1916.485552993603,1731709445.1379924
398,16.947356649208814,133.8771987138316,115.04867238691077,-1800.5860533667728,1731709445.1379924
399,31.60028467560187,142.60612521041185,124.39468237617984,177.90891084214672,1731709445.152484
400,-201.76199275953695,-105.10240845475346,-70.88419381016865,-3.173305112402886,1731709445.1529536
401,-90.38029227918014,28.322262364439666,28.76170060923323,61.119315025862306,1731709445.1529536
402,47.079730592202395,154.31949187163264,134.14834146061912,158.2370370752178,1731709445.166569
403,-140.80162348179147,-57.42990371957421,-33.12990375747904,25.863278143573552,1731709445.166569
404,-167.14173886971548,-52.74754897505045,-37.69632160337642,5.4920430849306285,1731709445.1822703
405,41.79151205485687,164.55185815040022,132.98523257439956,165.2119504925795,1731709445.1822703
406,-79.6093804067932,32.33517501689494,28.496167712379247,105.89339729538187,1731709445.182949
407,-214.91148100374267,-117.7619698047638,-89.77442848635837,-2.5898807193152606,1731709445.182949
408,6.797268169466406,103.66628687176853,88.83571359748021,139.20468620071188,1731709445.1967437
409,1.9129588273353875,97.62260854337364,85.49598293704912,134.73924565361813,1731709445.1967437
410,-184.85390505986288,-108.81986901070923,-69.46303182700649,-7.709803758654743,1731709445.2120917
411,-86.64039232349023,11.608649462461472,7.84444015705958,39.91034237714484,1731709445.2120917
412,56.85208917642012,154.95527486409992,134.76542495330796,144.18623294169083,1731709445.212911
413,-131.55659079132602,-56.143378134816885,-29.311465902719647,6.019368978682905,1731709445.212911
414,-137.24497862393036,-53.312273868359625,-30.205301992129534,-12.68761059967801,1731709445.2268343
415,53.83025001222268,146.42456306517124,122.01236610440537,129.73899941286072,1731709445.2268343
416,-39.1474027861841,32.9410388097167,44.35708342446014,77.00641003763303,1731709445.242313
417,-164.56120790028945,-109.534189902246,-69.21993832988665,-33.459014953579754,1731709445.242313
418,42.651689044665545,100.7491649063304,92.46715645445511,84.6881645466201,1731709445.2429223
419,65.94378596870229,113.3862868566066,99.5093880710192,105.09305870486423,1731709445.2429223
420,-134.95989975100383,-96.05185056198388,-36.81744511378929,-51.2272796430625,1731709445.256577
421,-32.87185066053644,30.442785639315844,35.13823003368452,23.365024973172694,1731709445.256577
422,107.8867639717646,168.8228238997981,137.71994591830298,139.25330490013584,1731709445.2724264
423,-74.65401296550408,-36.004016873426735,-8.6522585474886,18.611612129490823,1731709445.2724264
424,-105.05939960526302,-29.657406648620963,-10.196837229188532,-6.034328578505665,1731709445.2729344
425,80.15540580032393,171.0854633729905,144.54900323739275,137.55539032025263,1731709445.2729344
426,-29.730334697756916,37.82160825189203,39.19228158565238,69.47425152687356,1731709445.2866993
427,-158.1996380756609,-91.6387686142698,-50.64385524997488,-31.60776447551325,1731709445.2866993
428,42.87234314205125,128.51792207732797,102.84163893153891,105.78868009662256,1731709445.3025215
429,53.108449320774525,113.610680853948,103.13335112808272,122.07220450369641,1731709445.3025215
430,-150.2373910699971,-98.22847233619541,-61.04451702674851,-26.82443243218586,1731709445.3029747
431,-41.488580158445984,45.1705116648227,41.5558983576484,54.40245470544323,1731709445.3029747
432,75.76102335238829,175.47236602101475,130.82731029996648,151.8268485511653,1731709445.3165507
433,-111.1479567331262,-37.80290875211358,-25.95303574251011,37.23257400887087,1731709445.3165507
434,-127.23700634250417,-41.16133891232312,-28.33161211432889,-23.664216969627887,1731709445.332773
435,81.06046158960089,165.5653710383922,125.22120026638731,96.42023070761934,1731709445.332773
436,-33.73202765034512,42.18233160022646,46.02133890474215,22.194436287041754,1731709445.3328388
437,-180.42586351232603,-96.53055775631219,-83.52505566040054,-117.12805676227435,1731709445.3328388
438,10.346433227416128,109.02182360831648,80.18158510001376,39.27455938467756,1731709445.3466172
439,43.12665633903816,133.5069486182183,124.60411677369848,97.35146579658613,1731709445.3466172
440,-174.41210438357666,-86.57494407426566,-53.078530121129006,-58.61732195550576,1731709445.3627784
441,-52.38664862932637,57.47852241899818,38.253566696774215,19.774721015710384,1731709445.3627784
442,71.62469400139526,163.64306246116757,126.53390515083447,104.35255851363763,1731709445.3628433
443,-108.05505946977064,-35.596367778256536,-15.238222369458526,-20.27212770981714,1731709445.3628433
444,-130.5991764026694,-38.97723733820021,-20.911650602240115,-42.0757444514893,1731709445.3767765
445,72.43625229177997,185.52521710190922,146.96123870881274,97.8413926907815,1731709445.3767765
446,-46.09239700390026,50.72052319906652,50.05295105697587,32.572658664081246,1731709445.3927586
447,-162.68003822257742,-74.39782981853932,-47.32282408932224,-67.937152645085,1731709445.3927586
448,25.709942245390266,125.21185051649809,120.49022682243958,82.90049236780033,1731709445.3928232
449,34.255613644141704,119.75159658119082,113.67238920321688,99.16531727509573,1731709445.3928232
450,-156.8383144917898,-83.60920340940356,-41.021092663984746,-27.830465520266443,1731709445.4065683
451,-62.21510571287945,31.0149903325364,36.06572522269562,22.27671408606693,1731709445.4065683
452,84.07108105393127,169.75405898876488,159.93495165510103,136.7139128302224,1731709445.4224868
453,-96.04998061200604,-23.931619816459715,3.7679492053575814,10.331473627593368,1731709445.4224868
454,-106.57031918736175,-29.37317425198853,7.773382057901472,-21.835405891295522,1731709445.4230216
455,86.25518262805417,175.65562111884356,142.90718715684488,116.43617527047172,1731709445.4230216
456,-11.04953441908583,57.42242391966283,53.074790221173316,50.09035005653277,1731709445.436937
457,-148.72647148789838,-82.43113492336124,-51.24223924288526,-45.62864940939471,1731709445.436937
458,47.543478186707944,123.8729663323611,104.28524031443521,89.59865318844095,1731709445.4520507
459,79.201731311623,133.96695631276816,119.8544438299723,125.24737956607714,1731709445.4520507
460,-102.7705808323808,-76.98210068792105,-37.31485180789605,-9.561054236721247,1731709445.4675996
461,14.086333183106035,47.56404763646424,53.871388911735266,75.63386675389484,1731709445.4675996
462,139.5711963963695,165.27365884184837,144.99779123207554,177.85655224276707,1731709445.4680128
463,-47.064770992379636,-41.10898031294346,-8.382985750678927,56.0442707859911,1731709445.4680128
464,-63.34081559954211,-33.77129659987986,-12.29866100428626,36.11808382207528,1731709445.4822283
465,151.1648862590082,183.0830624308437,157.18238528771326,182.85305858356878,1731709445.4822283
466,44.12146972725168,47.10777984187007,55.83857628842816,115.46380128199235,1731709445.4829595
467,-71.9425854976289,-70.71402836218476,-37.90201610093936,24.453335860278457,1731709445.4829595
468,115.5909578804858,131.86887243762612,113.54149270476773,153.50606363127008,1731709445.4966152
469,146.0861021191813,135.86682549025863,129.60810291441157,174.5878796814941,1731709445.4966152
470,-71.87152739847079,-81.60461703315377,-58.88285485235974,8.566240848507732,1731709445.5125332
471,35.388803330715746,47.85575983300805,40.70694106770679,73.80505567556247,1731709445.5125332
472,174.78235447918996,183.09802203066647,156.07163500087336,183.694536073599,1731709445.5129704
473,-31.787279673386365,-33.202831806614995,-1.40433243336156,48.38121577678248,1731709445.5129704
474,-40.220754073467106,-27.43216617498547,-6.599053471814841,23.402423972729594,1731709445.5267513
475,158.07248147716746,176.98328560311347,151.830588451121,165.79537488566712,1731709445.5267513
476,47.61079638591036,49.12732581794262,50.288564754184335,93.17025764612481,1731709445.5421789
477,-80.88468629168347,-83.36984981223941,-49.97067325795069,-11.344986515585333,1731709445.5421789
478,108.30189286684617,123.63735263515264,103.33156582573429,112.15398982120678,1731709445.542832
479,117.77131955465302,119.29906868655235,107.97652157070115,121.05495171574876,1731709445.542832
480,-83.9102653558366,-84.2973450012505,-52.65218152618036,-25.070419352967292,1731709445.556871
481,22.123378187883645,37.645832953974605,35.26164673222229,43.519345834385604,1731709445.556871
482,136.35488243447617,159.3346977122128,132.69726027781144,123.02213909244165,1731709445.572379
483,-53.69935351377353,-55.02140814810991,-31.491827576886863,-8.906571744475514,1731709445.572379
484,-56.11532888514921,-44.018622478470206,-30.594251587521285,-33.91528274817392,1731709445.572991
485,135.50592514453456,160.23227370157838,131.0404845974408,111.4022699301131,1731709445.572991
486,6.322300875093788,15.217652919702232,25.49676794791594,43.074297739658505,1731709445.5867696
487,-134.05110406177118,-113.51344345510006,-79.11571361264214,-79.58320110710338,1731709445.5867696
488,57.562670168001205,92.69716030173004,74.81482866359875,44.45058092335239,1731709445.602464
489,85.40996523806825,102.81358968187124,92.0258482596837,83.22212376398966,1731709445.602464
490,-108.61978436307982,-98.7483184300363,-57.62998836720362,-42.42729504732415,1731709445.6029613
491,22.74794148048386,39.33252783399075,46.855336594861,37.66266250377521,1731709445.6029613
492,164.9875564952381,182.58565573673695,156.37082699732855,154.01095012528822,1731709445.61677
493,-22.209395886864513,-28.355921464040875,0.3571604457683861,32.206148468423635,1731709445.61677
494,-38.71731429127976,-31.205725230276585,-6.3372604749165475,20.66855710512027,1731709445.6325626
495,157.35816058563069,172.07279696129262,148.59931488940492,161.43839143728837,1731709445.6325626
496,63.27349740033969,63.346425449475646,68.88708723383024,104.63679091027007,1731709445.6329656
497,-57.38689487008378,-54.00041546020657,-23.16307037556544,7.646225459408015,1731709445.6329656
498,131.21999979531392,133.79118101485074,118.42954194685444,131.73610598919913,1731709445.6465485
499,152.69450534088537,144.83136568404734,135.51340494444594,165.84399358509108,1731709445.6465485
500,-45.29205841338262,-67.17234310414642,-31.368410878349096,12.235082705039531,1731709445.662511
501,62.21136581292376,65.02190062962472,67.48088485049084,90.42517107864842,1731709445.662511
502,191.4772678813897,194.97220438998193,165.72057688655332,197.80517860641703,1731709445.663003
503,13.05412079533562,-6.8215775191783905,18.34233933268115,76.04151584906504,1731709445.663003
504,-4.22421699995175,-6.45132742356509,14.763255075085908,65.1958059775643,1731709445.6765077
505,204.86984962271526,201.48337021283805,172.5122352060862,217.05818357830867,1731709445.6765077
506,103.70929572125897,81.58217763341963,84.92751814378425,153.77907632803544,1731709445.6924558
507,-26.981508230324835,-45.40612536203116,-16.31157365674153,50.18384755542502,1731709445.6924558
508,168.63021905208007,161.889049381949,146.07862231926993,179.72650222061202,1731709445.6929898
509,195.43782193446532,169.98219288606197,156.13895320007578,207.71591348899528,1731709445.6929898
510,-5.731396682094783,-44.99099646694958,-7.45923046162352,68.68513263622299,1731709445.706771
511,107.1088647809811,91.27225841861218,87.76984211010858,130.16160810785368,1731709445.706771
512,245.99378953548148,223.8816310474649,200.482946974691,240.21938400389627,1731709445.722299
513,60.03100413875654,13.818930336274207,36.196621721144766,101.8094265437685,1731709445.722299
514,30.998160782735795,7.206787214614451,19.89813771424815,70.59996141353622,1731709445.7230475
515,236.63655984634534,216.79826053138822,186.60043833917007,209.84765646373853,1731709445.7230475
516,124.88460927037522,94.27165818307549,99.07555967615917,145.89536722144112,1731709445.7365708
517,-5.282608687411994,-37.00257016159594,-8.914051544386894,40.96873406460509,1731709445.7365708
518,193.4444552580826,173.419160945341,154.52705631917343,172.6880105040036,1731709445.752555
519,209.64944176608697,187.33906858041883,171.52116171782836,200.39692927571014,1731709445.752555
520,1.0565217374823987,-33.93959209788591,-2.5450019198469818,56.766071477439255,1731709445.7530005
521,111.50698712887242,95.77509796526283,92.60927265277132,119.76468623103574,1731709445.7530005
522,248.78001500247046,224.50245444010943,201.57499776175246,219.5302574490197,1731709445.7667444
523,48.57569057447836,21.433366646058857,48.39243547664955,92.27642155671492,1731709445.7667444
524,46.45516729960218,22.020530939102173,42.92096184147522,71.50501720281318,1731709445.7825544
525,238.89171951962635,233.63903003185987,203.377629540395,209.72797966515645,1731709445.7825544
526,143.21385895321146,106.77788363490254,114.68216219125316,143.6028085486032,1731709445.7830007
527,-6.872066168580204,-33.632920301519334,-3.304201610852033,35.94604842411354,1731709445.7830007
528,191.16685618506745,178.61388198379427,157.02904938952997,157.9490647786297,1731709445.7967246
529,211.09678304893896,184.418206715025,166.62563267583027,185.3662713537924,1731709445.7967246
530,2.582400919403881,-38.33397454582155,-6.520515572745353,29.61439779913053,1731709445.8125956
531,112.48684091726318,95.61054236721247,88.0952134062536,97.90497099002823,1731709445.8125956
532,239.01139631820843,214.90213125385344,188.15997662069276,197.3302113120444,1731709445.8129992
533,48.18674097908661,6.8627164186909795,32.138830269221216,61.968272315803915,1731709445.8129992
534,16.842639450449497,-1.3837629836052656,16.73792225169018,39.67472867993638,1731709445.82657
535,218.5279642608948,221.8845244711265,176.48400895902887,177.02255455264822,1731709445.82657
536,113.0328663107939,84.46190059930086,91.04599447129294,112.79725261358544,1731709445.8426156
537,-25.294813350308686,-56.22565593384206,-24.954482454340905,2.7581762173213065,1731709445.8426156
538,157.3506807857193,151.86237760074437,129.0770371207036,120.87917641783133,1731709445.8430133
539,183.81795277213678,160.42674849927425,141.4598458739929,155.56674850685522,1731709445.8430133
540,-36.39109651884064,-64.49457473587245,-36.69028851529583,-1.6773451301269233,1731709445.8566055
541,80.7238705935888,69.04977288190275,62.70877250703052,66.69550585979596,1731709445.8566055
542,220.1249015419744,207.81502083782107,174.46446298295632,170.16357803391293,1731709445.8725033
543,19.830819515045732,-1.5483185816556215,13.46550979046151,41.9635474528186,1731709445.8725033
544,1.209857635665685,-22.450619434006512,-1.8755598277784884,2.825494416523725,1731709445.872975
545,205.72254681261256,193.84649450331926,160.82130794459954,153.21061153477058,1731709445.872975
546,99.51312797097489,73.05146583449095,70.99639080883935,92.20536345755681,1731709445.8867445
547,-43.39218923589215,-70.93094255961478,-42.13932275073603,-26.125071140471846,1731709445.8867445
548,144.9005538332276,137.6993764685467,114.49516719346866,106.9592687827535,1731709445.9023101
549,170.70960342744365,152.34482469502836,133.31808367045596,139.3430624990724,1731709445.9023101
550,-40.43766827089712,-71.27501335553825,-35.61319732805714,-11.019615219440311,1731709445.9030027
551,73.11691408371553,62.49746815953404,61.594282320234925,58.84919575275853,1731709445.9030027
552,200.85693697026,188.82380886282772,154.95714481407776,150.28600976942107,1731709445.9329505
553,35.456121529918164,5.392935736104846,23.9559291661717,42.670388544443995,1731709445.9329505
554,6.913205068092793,-7.1020700158551335,5.593020383734256,14.755775275174528,1731709445.933698
555,219.66489384742454,206.9922428475693,177.59101934591308,158.94013826688752,1731709445.933698
556,101.95154274208471,76.09948429837823,74.34360126918182,86.05322803044692,1731709445.9346058
557,-34.3304116432555,-57.47852241899818,-27.463955324608833,-13.158837994094938,1731709445.9346058
558,155.39471310889348,144.70794898550957,121.40650231158361,107.82692557247356,1731709445.946948
559,178.6606307332404,154.42046917043626,141.65806057164446,137.31603672308847,1731709445.946948
560,-24.976921854075044,-59.65514419320971,-27.834205420222133,-4.871219692286104,1731709445.9622977
561,79.51214300794527,63.843832143582404,62.31982291163877,57.0839629736729,1731709445.9622977
562,221.40394732682034,203.15884539298713,173.00216210028157,165.241869692225,1731709445.9630096
563,26.457922236528248,-5.396675636060536,14.149911482352763,35.31026543164626,1731709445.9630096
564,20.634898005519062,-5.033905340358615,13.166317794006318,17.06703344779089,1731709445.976802
565,220.92150023253635,208.37974573113024,175.07032677577808,160.82504784455523,1731709445.976802
566,116.20804137317464,80.39662934746593,82.03283557808027,91.00485557178035,1731709445.992324
567,-20.163670611102134,-56.24435543362051,-24.81984605593607,-8.700877246912569,1731709445.992324
568,165.2119504925795,148.36931104213,126.24593285424635,112.17268932098523,1731709445.99317
569,185.8823775476776,150.04478622227907,136.4857789329253,132.8206769763492,1731709445.99317
570,-13.383231991436332,-54.497822154313326,-20.997668301220983,1.1761985360644758,1731709446.0068412
571,94.85695252614096,66.53656011167914,66.10460166679695,58.90903415204957,1731709446.0068412
572,233.3491877852939,209.40447831898928,177.49752184702083,166.52091547707096,1731709446.0222504
573,61.31378982355818,13.602016138844192,31.360931078437716,43.57918423367664,1731709446.0222504
574,39.21846088534221,2.7151673678308725,19.666263916995376,16.061000359710306,1731709446.02289
575,229.57936862995848,206.71175035089254,172.44865690683946,149.1303806831129,1731709446.02289
576,133.9314272631891,87.94000755809247,90.5074488776736,101.08014605240896,1731709446.036517
577,-12.538014601450413,-51.57696028891951,-17.280207745265216,-9.950003832112998,1731709446.036517
578,179.51706782309338,151.41358960606158,135.0122583503835,114.7382606905885,1731709446.0525448
579,186.35734484205022,153.7734664781019,134.6008693552576,132.24847228312865,1731709446.0525448
580,-9.777968434151262,-61.97014226578176,-27.9950211183168,-11.191650617402047,1731709446.0529225
581,99.36727187270299,67.61365129891783,65.69321267167106,56.758591677527875,1731709446.0529225
582,231.86070760292932,197.7247707573697,169.89430523710325,152.1970986467786,1731709446.0668674
583,57.947879863437265,2.5094728702679276,19.688703316729516,41.080931063275784,1731709446.0668674
584,32.86063096066937,-6.593443621881306,13.641285088378936,12.156544805970043,1731709446.0824983
585,237.71739093353972,212.8751054778695,170.6946438276209,152.98621753742918,1731709446.0824983
586,127.84661003528163,81.19322803802788,81.52046928415075,89.8043476860039,1731709446.0829854
587,-15.264401669148356,-59.23253549821675,-28.00624081818387,-21.401577496435493,1731709446.0829854
588,178.67933023301885,150.86756421253085,130.3785223052837,109.57719875173643,1731709446.096596
589,192.37484387075529,151.58188510406762,136.272604635451,128.05230453284457,1731709446.096596
590,-18.955682925414294,-55.56369364168495,-24.228941862937063,-13.364532491657883,1731709446.1122704
591,99.1391379754059,74.1809156211093,73.95465167379007,55.46084639290348,1731709446.1122704
592,220.4203536384739,194.0222698012367,168.70127715123817,144.90803363313898,1731709446.1130145
593,29.823832196649164,-2.969480564817786,17.833712938707322,17.426063843537122,1731709446.1130145
594,18.577953029889613,-13.052250845357776,-2.0326356259174645,-4.519669096451253,1731709446.1267376
595,212.87697542784736,199.25064993929118,157.95280467858538,131.40699479309842,1731709446.1267376
596,96.12851851107553,60.78459397982806,64.0850556907244,61.3063100236468,1731709446.1425395
597,-38.4443015945144,-66.9554289067164,-40.57604456925765,-44.42440162366256,1731709446.1425395
598,162.58280082372949,144.23672159109265,117.50952655775473,91.29656776832417,1731709446.1429887
599,166.00106938323006,141.64871082175523,122.67432839656249,107.5165138761513,1731709446.1429887
600,-35.03164288494736,-71.89022689824924,-34.354720992967486,-30.459615189116448,1731709446.1574392
601,70.57565206382424,55.47954589268193,47.8744593327865,30.489534388761967,1731709446.1580658
602,209.59521321672946,186.42466304125264,159.8582837060094,132.83189667621627,1731709446.1580658
603,20.99579835124314,-13.731042687315494,6.402708724141121,11.90223160898313,1731709446.1718438
604,0.6544824922457337,-24.026987265329808,-5.441554435528815,-18.383478232193738,1731709446.1718438
605,204.12373958155513,187.13524403283373,156.46993434615433,129.5594842149876,1731709446.1876364
606,93.98368588648736,57.637468167115,66.17378981597722,67.5669025494717,1731709446.1876364
607,-41.96541740279645,-70.831835210789,-39.15301263611764,-46.238253102172166,1731709446.1880322
608,146.01317407004535,135.36754884617403,111.11616758350283,83.77936885738745,1731709446.1880322
609,166.51156572718173,146.68822601204738,121.70382435806096,105.31745270220563,1731709446.2014885
610,-49.57237391266972,-74.35482096904889,-44.115859877318144,-42.46843394683674,1731709446.2014885
611,67.96520189475268,49.17407456738874,46.445817549712956,21.09116580011323,1731709446.2173057
612,211.78679459076375,197.36013051168993,165.42325484007597,141.11203517811373,1731709446.2173057
613,7.573297410272062,-15.08114657131955,6.933774517849088,3.951204303186387,1731709446.218002
614,-12.386548653244972,-26.469141936395317,-9.226333190687,-25.18261635163799,1731709446.218002
615,188.10948797129095,185.56822595139965,155.5873179566115,120.13119642669335,1731709446.2316153
616,78.61643696855754,56.44070018129423,59.68880329281092,56.80721037695184,1731709446.2316153
617,-48.32324732746929,-69.95669862115756,-41.93175830319524,-44.87318961834535,1731709446.2475722
618,134.60273930523545,135.24039224768057,110.19615219440311,78.72676401725039,1731709446.2475722
619,152.6290570916608,138.85313560487702,123.14368584100157,103.70929572125897,1731709446.248116
620,-66.61509801074862,-82.24600987555459,-55.23832234553993,-49.869695959147066,1731709446.248116
621,49.57237391266972,53.79285101266578,50.35027310345322,20.533920706715435,1731709446.2618468
622,188.71161186415702,176.92531715380028,153.90810287650675,122.39757579984143,1731709446.2618468
623,-7.22922661434859,-25.261154250707477,-3.3958291597664356,-8.756975746247917,1731709446.2776396
624,-16.425640605390072,-28.256814115215093,-13.190627143718302,-25.766040744725615,1731709446.2776396
625,184.15641371812671,188.80323941307142,155.19462846126407,119.11020373879,1731709446.2780232
626,83.60546350944787,63.09772210242227,58.79122730344534,56.08914958545938,1731709446.2780232
627,-47.279815239831805,-73.68911877693608,-40.98556361440569,-45.79694490740076,1731709446.2919502
628,134.22126950975507,134.50737185636535,110.02411679644138,85.42118493793532,1731709446.2919502
629,151.8100190013647,145.85048842197284,125.7242168104276,108.12611756892875,1731709446.3074903
630,-57.59819921758026,-75.76102335238829,-45.60060015972704,-38.00299339974299,1731709446.3074903
631,50.30539430398494,53.81155051244423,49.03756821900606,19.647564417216927,1731709446.3079417
632,194.80390889197588,179.04958032863215,149.68949572648853,125.55031146248803,1731709446.3079417
633,3.025579064153135,-17.788834139239043,0.02617929968982935,-0.9630242385901511,1731709446.3219893
634,-36.48272406775504,-44.02797222835943,-28.060469367541373,-44.41318192379549,1731709446.3219893
635,168.60590970236808,177.75557494396344,141.19992282707244,101.60373204620555,1731709446.3372064
636,70.56069246400148,60.70044623082504,59.29985369741917,50.40450165281072,1731709446.3372064
637,-64.12806454021484,-76.572581642773,-45.20417076442391,-54.14814150845632,1731709446.337968
638,114.49329724349082,117.88351655332372,96.40340115781873,62.323562811594456,1731709446.337968
639,132.2503422331065,122.46863389899954,103.91312026884407,84.68068474670872,1731709446.3515625
640,-78.94554816465825,-84.01498255459592,-53.87325886171311,-49.34984986530617,1731709446.3515625
641,33.80495569948107,41.481100358534604,33.09437470789999,12.223863005172461,1731709446.3674605
642,166.6686415253207,168.86957264924422,133.0619005234912,106.20380899170414,1731709446.3674605
643,-21.971912239678204,-34.44634854188189,-11.975159658119082,-14.355605979915708,1731709446.3680644
644,-46.924524744041264,-44.53659862233326,-33.78999609965831,-45.38929581223056,1731709446.3680644
645,167.45776041597128,173.48460919456556,142.74824140872806,106.26364739099517,1731709446.3818045
646,52.78868787456304,42.778845643159,49.93514420837164,40.613443568814546,1731709446.3818045
647,-90.70379362534732,-93.23383594537154,-59.744901792146266,-69.23115802975371,1731709446.3976247
648,100.29289711173624,112.65513641526923,92.06137730926275,58.007718262728304,1731709446.3976247
649,128.2860482800752,127.27440534206107,108.40100021567196,89.28824149211869,1731709446.3980381
650,-76.86990368925035,-86.30380132747814,-53.678784064017236,-49.536844863090664,1731709446.3980381
651,33.72267790045589,40.598483968991786,38.464871044270694,11.404824914876372,1731709446.4118369
652,172.87313555181026,176.6223852573894,144.9959212820977,116.59699096856639,1731709446.4118369
653,-10.131388979963958,-23.825032667722553,-2.5580915696918964,-2.862893416080624,1731709446.4274623
654,-25.629534396342933,-27.93518271902576,-6.0399384284392,-21.831665991339833,1731709446.4274623
655,161.87034988217056,176.4765291591175,147.50165425240993,110.83754503680393,1731709446.4279716
656,71.66396295093,58.318129959050566,62.10103876423091,50.14270865591243,1731709446.4279716
657,-71.22639465611428,-78.67440541787073,-50.559707500971854,-51.32825694186613,1731709446.4417205
658,118.42019219696522,129.53704481525347,100.72672550659627,75.97045774990693,1731709446.4417205
659,134.3559059081599,130.4533203043975,114.5344361430034,98.22286248626187,1731709446.4575336
660,-65.38093102537096,-76.07143504871055,-45.00595606677234,-49.8210772597231,1731709446.4575336
661,20.662947255186737,52.7830780246295,36.53134276717901,8.745756046380848,1731709446.4580548
662,158.56427832134068,169.3968985429965,141.51781432330608,111.922116023954,1731709446.4580548
663,-11.384255465120077,-29.55829929979518,-5.950180829502642,-10.305294327903539,1731709446.4721084
664,-39.41854553297162,-40.10481717484072,-25.38644089922309,-39.70090797962621,1731709446.4721084
665,157.18051533773541,176.33067306084558,139.1392379514873,105.76624069688842,1731709446.4874804
666,53.25617536902428,51.500292339827865,56.132158434949815,46.87403609463945,1731709446.4874804
667,-83.78497870732099,-86.92088482016698,-58.34617920871824,-64.77693718252704,1731709446.488008
668,111.46397827938199,120.28079242492095,105.11362815462053,64.12619459023699,1731709446.488008
669,119.5010232841596,125.32591746514663,108.77499021124095,84.28799525136128,1731709446.5021343
670,-66.37574441358447,-74.13790677161887,-42.825594392605126,-41.58581755729392,1731709446.5021343
671,40.839707516133785,44.94424771750346,46.99184294324368,16.24425545753911,1731709446.5173063
672,167.786871612072,176.63360495725647,145.97951497044414,113.05530571052805,1731709446.5173063
673,-26.50467098597437,-28.301692914683372,-14.09194303303957,-20.440423207823187,1731709446.5182135
674,-52.72510957531631,-47.78657168382779,-31.920046121813357,-47.68185448506847,1731709446.5182135
675,150.73292781412601,172.8450863021426,131.44626374263316,95.49647541856393,1731709446.532128
676,40.12164672464132,31.390850278083235,36.804355463944376,25.21253555128351,1731709446.532128
677,-97.23739884793758,-96.24445540970191,-66.12891101650894,-75.66752585349604,1731709446.547501
678,85.64370898529887,99.29995367350057,81.47372053470463,46.735659796278924,1731709446.547501
679,109.93435919750482,115.72933417884633,103.73360507097095,76.41924574458972,1731709446.5480003
680,-85.29589828941971,-100.5453403587453,-61.03890717681497,-61.42972672218457,1731709446.5480003
681,24.301869912073016,43.25381293753162,30.854174634441733,7.515328960958868,1731709446.5618536
682,147.68864925019443,164.10868000565097,136.05008058808744,108.98629455873743,1731709446.5618536
683,-27.282570176757872,-30.04074639407918,-4.6075567454099655,-12.160284705925733,1731709446.577333
684,-49.77432851027697,-44.17382832663134,-19.3427625708282,-38.56397839309648,1731709446.577333
685,158.80363191850483,175.93050376558676,141.31585972569883,105.37729110149667,1731709446.578188
686,55.249542045407,51.66484793787822,51.6180991884321,43.3734897361137,1731709446.578188
687,-83.93831460550427,-86.19908412871882,-53.05048087146133,-63.11642160220072,1731709446.591838
688,94.62320877891034,113.57141190441325,96.92698715161532,60.47231233352795,1731709446.591838
689,111.66219297703356,123.57190438592806,106.7554442351684,84.40767204994336,1731709446.6074352
690,-97.4169140458107,-96.15469781076536,-63.757814444601536,-62.13282791385427,1731709446.6074352
691,15.797337412834167,42.300138448830694,38.883739839307964,3.902585603762418,1731709446.608002
692,164.4434010516852,173.660384492483,141.74968812055886,110.55705254012719,1731709446.608002
693,-31.4600384272635,-32.243547467980534,-14.353736029937863,-17.95712963724509,1731709446.6216753
694,-50.36523270327598,-47.99226618139073,-33.00087720900774,-46.8179375953041,1731709446.6216753
695,152.5579989925027,177.49004204710945,139.09435915201902,108.33555196644738,1731709446.6374176
696,37.45509805623442,41.802731754723936,46.71135044656694,41.59703725716099,1731709446.6374176
697,-93.23570589534938,-88.85067319730297,-55.53751434199512,-66.39631386334077,1731709446.6379218
698,102.03195059113204,122.83514409465715,102.37602138705552,65.52117727370933,1731709446.6379218
699,115.0916812364012,121.39154271176085,105.44647925067693,85.49598293704912,1731709446.6518888
700,-88.05968435667455,-86.91714492021129,-58.24146200995892,-54.15188140841201,1731709446.6518888
701,23.912920316681266,38.216167697217315,37.88892645109445,9.03746824292466,1731709446.6675065
702,156.75042684283108,173.63794509274885,146.4021236654371,111.65658312710002,1731709446.6675065
703,-25.236844900995493,-25.227495151106268,-7.8276106072589755,-7.118899565655738,1731709446.667936
704,-43.38657938595861,-30.75132738566026,-16.006771810352802,-27.396637125406414,1731709446.667936
705,156.87010364141315,182.1761366915889,144.184362991713,118.28368584858254,1731709446.6817474
706,49.1722046174109,49.00951896933839,53.772281562909484,50.52043855143711,1731709446.6817474
707,-83.19407451432198,-84.03368205437437,-51.56200068909675,-55.969472786877304,1731709446.6975722
708,101.49714489746839,126.59374355012551,104.2347516650334,70.5326432143338,1731709446.6975722
709,136.2108962861821,145.85422832192853,130.45519025437534,106.05795289343223,1731709446.6980307
710,-72.254867143929,-69.28351662913337,-35.585148078389466,-42.636729444842786,1731709446.6980307
711,35.985317373648286,54.21171980770305,51.07207379490137,21.53995379479602,1731709446.7116296
712,162.83150417078286,177.736875444185,145.76260077301413,132.46164658060297,1731709446.7116296
713,-6.365309724584222,-4.186818000394851,14.136821832507849,17.657937640789896,1731709446.72747
714,-34.70253168884665,-25.18635625159368,-8.47087339963764,-20.088872611988336,1731709446.72747
715,170.54691777937114,189.09495160961524,154.94031526427716,123.57938418583944,1731709446.7280097
716,53.293574368581176,51.889241935219616,56.6931434283033,57.113882173318416,1731709446.7280097
717,-71.97437464725226,-68.10170824313536,-40.73873021733016,-45.62864940939471,1731709446.7418592
718,102.57423608470708,122.74912639567629,96.8970679519698,79.02221611374989,1731709446.7418592
719,131.2443091450259,133.05255077360198,117.13740651216358,108.15977666852996,1731709446.7573147
720,-84.51425919868052,-87.0966601180844,-53.93683716095984,-47.34526348905638,1731709446.7573147
721,19.73171216621995,42.288918748963624,37.260623258538544,13.368272391613573,1731709446.7579813
722,161.95262768119574,174.3560058842413,137.98360886517912,119.85818372992799,1731709446.7579813
723,-20.371235058642924,-31.828418572898954,-9.873335883021355,-8.487702949438244,1731709446.7718987
724,-46.438337749801576,-37.98803379992023,-23.68104651942849,-35.97970752371475,1731709446.7718987
725,161.29814518895,185.42984965303913,140.92691013030708,106.18884939188138,1731709446.7874677
726,58.23772211000323,55.40474789356813,61.45403607189655,56.53419768018648,1731709446.7874677
727,-78.14520957414061,-78.55472861928865,-55.04384754784405,-57.88056166423485,1731709446.7879064
728,101.99455159157515,123.2240936900489,95.00093867443502,66.63192756054923,1731709446.7879064
729,125.32778741512448,130.77869160054252,114.66907254140824,101.13250465178862,1731709446.8015933
730,-78.35464397165924,-84.97239694325253,-50.36897260323167,-47.509819087106735,1731709446.8015933
731,25.951165792532265,40.54612536961213,38.476090744137764,11.08319351868704,1731709446.8174067
732,163.45606746338308,176.48774885898456,144.71542878542095,120.3705500238575,1731709446.8174067
733,-24.354228511452675,-27.849165020044893,-11.773205060511827,-6.546694872435182,1731709446.8180351
734,-60.994028377346694,-50.85328964749351,-30.745717535726726,-42.80128504289314,1731709446.8180351
735,158.00703322794288,178.59705243399367,142.41165041271597,116.06966507481411,1731709446.8315747
736,45.234089964069426,54.20424000779167,55.42531734332442,51.0440245452337,1731709446.8315747
737,-91.04786442127079,-81.00810299022123,-59.86457859072834,-51.23849934292957,1731709446.8474817
738,101.51210449729115,120.8155981185846,96.66519415471703,74.91580596240237,1731709446.8474817
739,118.56230839528143,127.88774893479422,114.67655234131962,99.53182747075334,1731709446.848035
740,-81.0735512394458,-87.26869551604614,-51.92103108484298,-40.688241567928344,1731709446.848035
741,30.663439736701548,54.4884724044241,43.633412783034146,30.04822619399056,1731709446.8615592
742,159.27111941296607,177.31426674919203,142.1835165154189,119.34955733595416,1731709446.8615592
743,-27.03573677968234,-24.513174259569496,-3.9605540530756116,2.657198918517679,1731709446.877356
744,-54.135051858611405,-42.50209304643795,-22.259884536266327,-31.690042274538428,1731709446.877356
745,154.7084414670244,172.83012670231983,139.1766369510442,114.59988439222798,1731709446.8781788
746,43.652112282812595,43.58292413363233,44.026102278381586,46.47760669933632,1731709446.8781788
747,-95.98079246282578,-92.07820685906336,-59.61026539374143,-63.643747495952994,1731709446.892131
748,91.36949581746012,116.7802460663952,94.50727188028395,69.63506722496822,1731709446.892131
749,112.61586746573448,118.95312794065103,101.32136959955096,88.1326124058105,1731709446.9073606
750,-91.1525816200301,-87.6165062119253,-58.79122730344534,-49.966933357995,1731709446.9073606
751,16.95296649914235,51.37313574133441,37.52615615539253,12.70631009945646,1731709446.9080255
752,153.519153281115,169.48291624197736,138.94476315379143,114.38297019479796,1731709446.9080255
753,-36.28076947014779,-38.668695591855794,-15.150334720499814,-13.005502095911652,1731709446.922132
754,-51.04215459525585,-41.39134275959805,-22.031750638969243,-35.74783372646198,1731709446.922132
755,142.08627911657095,165.66447838721797,130.77308175060898,104.55451311124489,1731709446.937538
756,37.256883358582854,52.57364362711087,36.905332762748,45.494013010989875,1731709446.937538
757,-94.63068857882172,-85.85127343283966,-63.761554344557226,-63.10520190233365,1731709446.9380355
758,87.29674476571381,107.63245077477768,83.82237770687789,57.940400063525885,1731709446.9380355
759,105.58111564908177,130.10550960851833,108.51693711429834,86.99942271923646,1731709446.9521296
760,-84.43572129961103,-90.85151967359707,-57.11949202325195,-53.938707110937685,1731709446.9521296
761,-0.22439399734139442,25.433189648669213,22.783470530062914,-6.359699874650687,1731709446.96756
762,152.1428700974211,169.23608284490183,138.15938416309655,110.40745654189959,1731709446.96756
763,-33.243970706127584,-35.770273126196116,-12.334190053865314,-14.752035375218838,1731709446.968045
764,-66.09899181686342,-46.275652101729065,-35.55896877869964,-42.32631774852052,1731709446.968045
765,141.7309886207804,165.70935718668625,134.42322410736233,104.6629702099599,1731709446.9821405
766,40.491896820254624,38.283485896419734,39.616760230623186,40.32173137227073,1731709446.9821405
767,-94.74288557749242,-89.93524418445304,-60.67239698115736,-63.07154280273244,1731709446.9975088
768,97.94423993956298,123.69158118451014,98.51270473282784,73.0907347840257,1731709446.9975088
769,117.81806830409914,129.38744881702587,111.02640998456627,100.35834536096081,1731709446.9980252
770,-93.54237769171596,-93.02066164789721,-56.32289333269,-46.672081497032195,1731709446.9980252
771,20.232858760282397,33.74698725016788,32.91859940998256,14.385525179561228,1731709447.0121205
772,150.34023831877857,166.40871847840026,137.61335876956582,116.5184530694969,1731709447.0121205
773,-23.602508620359004,-25.709942245390266,-3.911935353651643,-7.133859165478498,1731709447.0439837
774,-51.6180991884321,-36.578091516625136,-17.28581759519875,-34.625863739755005,1731709447.0439837
775,140.53048073500395,172.4000382074155,134.6550979046151,106.3309655901976,1731709447.0442927
776,42.21599069982767,43.107956839259714,45.11815306544304,48.42609457625076,1731709447.0442927
777,-97.69366664253175,-89.10498639428988,-61.20720267482102,-62.409580510575324,1731709447.045221
778,87.64829536154866,118.87085014162585,95.47216606885195,64.50766438571736,1731709447.045221
779,112.24935727007687,125.69990746071562,104.41426686290652,90.56354737700894,1731709447.0459132
780,-96.49689865671098,-96.53990750620142,-67.7333280974999,-58.94269325165078,1731709447.0459132
781,13.27290494274348,36.74264711467549,32.353874516673386,4.841300492640585,1731709447.056573
782,141.97408211790025,170.18975733360276,140.45942263584584,112.4793611173518,1731709447.056573
783,-27.226471677422523,-20.829372803214937,-1.5557983815670013,0.46935744443908334,1731709447.0718253
784,-60.71727578062564,-41.065971463453025,-27.521923773922026,-35.61693722801283,1731709447.0718253
785,142.08627911657095,167.32873386749998,135.0627469997853,103.00993442954496,1731709447.0873215
786,44.841400468721986,54.25285870721564,55.23458244558424,45.62490950943902,1731709447.0873215
787,-101.55698329675943,-80.14044620050117,-55.339299644343555,-57.921700563747436,1731709447.0879705
788,92.89911489933729,113.14132340950891,96.61283555533737,61.564363120589405,1731709447.0879705
789,115.25249693449587,130.36356270546094,120.47713717259467,91.79023456247523,1731709447.102013
790,-110.1288339952007,-100.3246862613596,-67.4042169013992,-64.03643699130043,1731709447.102013
791,7.65557520929724,35.17188913328573,28.98048475664109,10.836360121611506,1731709447.1172683
792,151.59684470389038,165.27178889187053,136.34927258454263,111.4808078291826,1731709447.1172683
793,-48.22600992862135,-40.639622868504375,-21.059376650489867,-22.553466682787985,1731709447.1179683
794,-72.51292024087161,-46.86655629472807,-35.226117682643235,-49.555544362869114,1731709447.1179683
795,131.07227374706417,162.1340128290467,120.83990746829659,89.9128047847189,1731709447.1319845
796,38.887479739263654,40.51246627001092,36.69215846527368,34.32667174329981,1731709447.1319845
797,-100.06102331448346,-93.46944964258,-64.01960744149983,-68.15406684251502,1731709447.1474571
798,83.1903346143663,113.54897250467911,94.17442078422755,58.83049625298008,1731709447.1474571
799,104.42548656277359,121.95626760507002,100.42379361018538,78.3527740216814,1731709447.1480212
800,-92.03893790952861,-87.99423610744998,-65.9568756185472,-62.372181511018425,1731709447.1480212
801,3.4874567086808383,26.573859135154635,28.823408958502114,6.303601375315338,1731709447.1624866
802,147.91865309746936,157.7246707812883,131.43878394272178,104.87614450743422,1731709447.1630096
803,-45.13498261524364,-46.94509419379756,-27.462085374630988,-23.409903772640973,1731709447.1630096
804,-67.66413994831964,-51.83314343588427,-29.664886448532343,-48.747725972440094,1731709447.1933448
805,140.39023448666558,160.45105784898624,129.67729106359184,94.2136897337623,1731709447.1933448
806,41.877529753837734,45.78946510748938,38.808941840194166,36.3686571191065,1731709447.1936767
807,-104.78264700854197,-97.04479400021955,-64.39733733702451,-66.42623306298628,1731709447.1936767
808,89.51263548946008,111.69024222670123,92.5999229028821,61.67282021930441,1731709447.1943927
809,108.11863776901737,123.95711408136413,108.95076550915837,94.916790925432,1731709447.1943927
810,-94.25856853323057,-97.62821839330718,-63.840092243626714,-60.63312803162262,1731709447.2065313
811,18.24136203387752,33.61609075171873,30.046356244012713,12.556714101228863,1731709447.2065313
812,131.95302018662915,160.6455326466821,132.6205923287198,107.67358967429027,1731709447.2221723
813,-44.712373920250684,-48.54577137483284,-23.550150020979345,-21.48011539550498,1731709447.2221723
814,-72.78780288761482,-55.71889948984608,-32.20801841840148,-49.951973758172244,1731709447.2230368
815,126.61992284981534,152.91515943827108,120.55193517170846,87.75488251028582,1731709447.2230368
816,20.421723708044738,32.46420156536624,33.70397840067744,29.289026502985507,1731709447.2366662
817,-130.2999844062142,-115.47502098185942,-82.89488251786679,-91.50974206579849,1731709447.2366662
818,79.3176682102494,101.98894174164161,83.67652160860598,48.96090026991442,1731709447.2524424
819,97.97602908918634,111.7388609261252,96.47819915693253,76.43794524436817,1731709447.2524424
820,-112.30732571939006,-107.65489017451182,-67.7333280974999,-71.96128499740735,1731709447.2530873
821,-18.30868023307994,8.831773745361716,12.8951750472188,-16.412550955545157,1731709447.2530873
822,124.27874547755346,153.25175043428317,121.82350115664303,97.14577129902318,1731709447.2665613
823,-76.25095024658367,-49.914574758615345,-31.976144621148705,-31.106617881450802,1731709447.2665613
824,-94.46426303079352,-65.32296257605776,-52.474536278285086,-69.80710262292996,1731709447.282323
825,105.18281630380079,145.72333182347938,103.86076166946441,71.43769900361076,1731709447.282323
826,5.230250088032335,20.881731402594596,28.729911459609866,11.786294710356742,1731709447.2829037
827,-132.91417447524145,-119.78338573081419,-82.97716031689197,-96.70446310425177,1731709447.2829037
828,39.67098877998069,87.67260471126065,65.33231232594699,24.73008845699951,1731709447.2966309
829,72.41381289204583,99.7674411679618,81.75795293133706,50.06043085688725,1731709447.2966309
830,-132.07269698521122,-112.65887631522492,-82.2254404257983,-90.2456558807753,1731709447.3123288
831,-22.516067683231086,8.386725650634617,7.367602912709117,-32.33704496687278,1731709447.3123288
832,117.51326645771042,139.98258539149538,112.8701806627214,76.44168514432386,1731709447.312919
833,-62.90324730472639,-49.540584763046354,-29.586348549462855,-38.11893029836938,1731709447.312919
834,-85.93729113182053,-65.11726807849482,-45.12563286535442,-67.6080414489843,1731709447.3266213
835,123.1492956909351,152.52994974283502,127.19773739296943,69.12270093103871,1731709447.3266213
836,8.566240848507732,30.84108498459682,37.679492053575814,10.914898020680994,1731709447.342812
837,-126.35812985291705,-108.48888786463067,-78.98294716421515,-97.83017299091443,1731709447.342812
838,63.11642160220072,98.04708718834445,75.14954970963299,31.64516347507015,1731709447.342876
839,88.70855699898675,111.24145423201844,90.07549043279141,59.963685939554125,1731709447.342876
840,-113.79954580171034,-106.42072318913415,-72.67373593896627,-87.69504411099479,1731709447.3568
841,-16.401331255678087,24.808626356069,18.437706781551242,-19.88317811442539,1731709447.3568
842,129.88111561117694,164.30689470330253,130.59356655273587,90.86273937346414,1731709447.3721511
843,-54.98961899848655,-45.21352051431313,-23.39681412279606,-31.63768367515877,1731709447.3721511
844,-72.76536348788068,-56.321023382712156,-37.33168135769665,-57.39063477003947,1731709447.372959
845,141.8263560696505,169.86438603745773,134.03801441192627,95.70964971603826,1731709447.372959
846,35.21676793275401,52.13607533229515,48.03527503088117,41.802731754723936,1731709447.3869421
847,-93.59286634111777,-86.80868782149628,-61.753228068351746,-67.29762975266203,1731709447.3869421
848,102.59480553446338,118.21262774942443,98.49774513300508,63.606348496396095,1731709447.402254
849,137.2711579236202,141.88245456898585,118.06116180121899,93.74994213925675,1731709447.402254
850,-67.78007684694603,-69.06286253174767,-44.59456707164645,-41.71671405574307,1731709447.4029768
851,40.258153073024005,54.03594450978562,44.430011473596096,16.565886853728443,1731709447.4029768
852,171.87271231366321,180.82229290762916,143.19702940341085,109.72305485000834,1731709447.4165184
853,-16.610765653196722,-14.793174274731427,-2.5954905692487955,-9.08234704239294,1731709447.4165184
854,-44.259846025612205,-31.23003457998857,-29.249757553450763,-43.478206934873015,1731709447.4322293
855,147.37636760389432,175.49667537072673,128.86199287325144,92.58683325303718,1731709447.4322293
856,43.822277730796486,54.727826001588255,47.48550973739475,35.781492826063186,1731709447.4329429
857,-102.68830303335562,-87.24999601626769,-66.01297411788255,-79.63181980652735,1731709447.4329429
858,88.60009990027174,117.2215542611666,92.90659469924867,52.14729503216222,1731709447.4470007
859,108.07749886950478,125.80088475951925,107.72407832369208,79.6467794063501,1731709447.4470007
860,-93.01692174794152,-86.15420532925054,-51.94347048457712,-60.2329587363638,1731709447.4627094
861,5.462123885285109,37.89827620098367,31.695652124471962,4.8076413930393755,1731709447.4627094
862,149.10420138342306,171.30798742035404,135.65739109274,109.62955735111609,1731709447.4629588
863,-30.190342392306775,-26.71597533347085,-7.7490727081894875,-3.266802611295134,1731709447.4629588
864,-65.3454019757919,-49.18155436730012,-26.53459018561989,-35.16066943341866,1731709447.4767973
865,138.73719870625064,173.78380119102076,136.18471698649228,108.5524661638774,1731709447.4767973
866,35.785232726018876,46.44394759973511,52.82234697416425,53.6731742140837,1731709447.4926279
867,-101.70844924496487,-92.5419544535689,-60.141331187449396,-62.97056550392881,1731709447.4926279
868,80.39849929744378,106.90691018337384,92.82805680017918,62.405840610619634,1731709447.493034
869,104.30019991425797,122.4125353996642,105.32680245209485,95.50021531851962,1731709447.493034
870,-106.51796058798209,-95.50395521847531,-60.623778281733394,-51.163701343815774,1731709447.5069187
871,-5.559361284133047,28.35031161410734,26.366294687613845,7.43305116193369,1731709447.5069187
872,137.98173891520128,163.5065561127849,131.2143899453804,111.78373972559348,1731709447.5226655
873,-45.090103815775365,-35.34392453124747,-13.422500940971076,-5.772535581607372,1731709447.5226655
874,-71.51623690268025,-58.46772595727816,-32.754043811932206,-37.08671791059896,1731709447.5230036
875,128.23929953062907,152.59726794203743,125.38762581441551,100.05541346454993,1731709447.5230036
876,32.168749468866736,45.520192310679704,51.51712188962847,53.32162361824885,1731709447.536656
877,-119.39817603537813,-102.08243924053386,-72.01177364680916,-62.67137350747362,1731709447.536656
878,71.45639850338921,101.71966894483194,85.3370371889323,64.4216466867365,1731709447.5525973
879,105.61290479870513,125.87194285867736,109.14150040689856,101.96276244195178,1731709447.5525973
880,-108.05131956981495,-94.80833382671699,-61.95144276600331,-48.17552127921954,1731709447.5529928
881,3.786648705136031,31.24873407976702,33.76755669992417,13.596406288910657,1731709447.5529928
882,132.0764368851669,169.97284313617274,130.7992610502988,116.71666776714846,1731709447.5666316
883,-42.13558285078034,-28.578445511404425,-11.365555965341628,-6.845886868890375,1731709447.5666316
884,-76.26964974636212,-52.323070330079645,-33.86105419881642,-33.851704448927194,1731709447.5989118
885,138.5240244087763,162.85581352049485,133.80988051462919,114.2969524958171,1731709447.5989118
886,30.34741819044575,53.23186601931229,47.05168134253472,56.01435158634558,1731709447.599504
887,-110.23168124398217,-96.6184454052709,-66.42062321305275,-58.50138505687937,1731709447.599504
888,76.10883404826745,106.12153119267896,88.75156584847718,67.55194294964895,1731709447.6003761
889,102.19463623920456,125.77096555987373,105.10240845475346,98.8436858789064,1731709447.6003761
890,-97.4000844960101,-97.97602908918634,-61.90282406657934,-49.129195767920464,1731709447.6009932
891,-1.8680800278671086,25.95303574251011,22.88444782886654,-0.6488726423121989,1731709447.6009932
892,142.08066926663741,165.38024599058554,135.74714869167656,113.67986900312826,1731709447.6116693
893,-34.1471565454267,-23.271527474280447,-5.407895335927606,0.4095190451480448,1731709447.6116693
894,-72.46991139138117,-51.29833774222061,-33.93211229797453,-38.75097339088097,1731709447.6268258
895,132.77953807683662,161.07936104154214,129.23224296886474,100.8445323552005,1731709447.6268258
896,43.66520193265751,46.43272789986804,51.281508192420006,45.01156591670588,1731709447.6424184
897,-102.27691403822973,-96.94381670141593,-60.986548577435315,-60.356375434901565,1731709447.6424184
898,79.26904951082543,104.18800291558728,85.84192368295044,56.0068717864342,1731709447.6430728
899,107.44545577699319,130.8235704000108,104.81443615816534,92.22406295733526,1731709447.6430728
900,-89.96516338409856,-82.56016147183254,-62.05242006480694,-48.62804917385802,1731709447.6570013
901,3.4388380092568696,30.859784484375268,21.69889954291284,8.326887251343578,1731709447.6570013
902,145.68593282392249,166.27034218003973,137.5497804703191,109.93248924752697,1731709447.6725976
903,-37.95063480036333,-37.24379370873794,-15.879615211859345,-9.273081940133125,1731709447.6725976
904,-66.79648315859959,-47.58835698617622,-30.027656744234264,-37.97681410005316,1731709447.6731393
905,142.26018446451053,177.5424006464891,138.5894726580009,110.86372433649376,1731709447.6731393
906,33.64227005140856,45.871742906514555,40.039368925616145,44.14016922703013,1731709447.6870172
907,-101.02404755307361,-83.2819621632807,-55.64971134066582,-51.17118114372715,1731709447.6870172
908,93.37595214368775,122.64066929696128,99.64589441940188,76.55762204295024,1731709447.7024322
909,114.93647538824007,126.72464004857466,108.9021468097344,105.19029610371217,1731709447.7024322
910,-89.46027689008042,-90.67200447572395,-52.081846782937646,-45.79694490740076,1731709447.7031064
911,5.02455559046939,30.485794488806278,29.83692184649408,12.119145806413144,1731709447.7031064
912,145.02023063180968,172.81516710249707,133.51442841812968,120.37802982376888,1731709447.716956
913,-43.16779523855075,-32.991527459118515,-15.744978813454509,-7.702323958743364,1731709447.716956
914,-52.91023462312296,-39.92156207701191,-18.209572884254158,-26.966548630502075,1731709447.7324688
915,146.80042301071808,168.66013825172558,135.3993379957974,105.47078860038891,1731709447.7324688
916,50.10530965635553,47.56965748639777,54.70351665187627,51.44419384049252,1731709447.7332234
917,-100.14517106348649,-97.88253159029409,-69.68181597441435,-67.22283175354823,1731709447.7332234
918,82.48910337267444,115.30672548385337,84.08043080382049,63.157560501713306,1731709447.7469149
919,107.21358197974041,125.18380126683041,101.08949580229819,92.88976514944807,1731709447.7469149
920,-87.7997613097541,-90.27931498037651,-55.687110340222716,-46.08491720398888,1731709447.7625933
921,3.3677799100987613,22.886317778844386,25.876367793418467,3.255582911428064,1731709447.7625933
922,142.74637145875022,156.99913018988445,127.18277779314667,109.0685723577626,1731709447.7630243
923,-29.60317809926346,-32.73347436217591,-11.623609062284231,-4.254136199597269,1731709447.7630243
924,-66.35517496382818,-51.126302344258875,-36.70711806509644,-40.265632872935385,1731709447.7765768
925,140.1546207894571,165.26056919200346,131.90627143718302,101.83560584345832,1731709447.7765768
926,63.35951509932056,67.9034935454838,68.56732578761876,70.98891100892797,1731709447.7927806
927,-101.50275474740192,-94.22490943362936,-59.50180829502642,-60.57328963233158,1731709447.7927806
928,85.98216993128881,105.14915720419958,84.97052699327469,61.87851471686736,1731709447.792848
929,113.34327800711617,116.26413987250999,102.6789532834664,93.11041924683377,1731709447.792848
930,-77.3504808335565,-84.99483634298667,-47.638845635578036,-36.170442421454936,1731709447.8067727
931,14.108772582840174,25.777260444592685,30.450265439227223,11.4684032141231,1731709447.8067727
932,155.6078874063678,161.9432779313065,136.6933433804661,113.67612910317257,1731709447.8222806
933,-28.503647512290627,-32.01541357068345,-4.02413235232234,-1.3968526334501803,1731709447.8222806
934,-60.66678713122383,-55.66654089046642,-32.26785681769252,-38.111450498458,1731709447.8229256
935,140.39771428657696,166.2778219799511,137.86019216664135,106.73113488545641,1731709447.8229256
936,53.093489720951766,63.135121101979166,56.67444392852485,58.16105416091159,1731709447.8365805
937,-89.9876027838327,-91.85755276167765,-56.147118034772575,-53.067310421261936,1731709447.8365805
938,91.5434011653997,108.6609232625924,91.76592521276325,67.24901105323806,1731709447.8522136
939,118.11913025053218,125.26607906585559,108.55807601381093,96.1397382109426,1731709447.8522136
940,-85.49224303709343,-88.910511596594,-50.21937660500407,-43.474467034917325,1731709447.8530033
941,4.022262402344495,19.98789531318471,22.353382035158575,5.1330126891843975,1731709447.8530033
942,160.23414365155622,172.41499780723825,143.86273159552366,127.90270853461698,1731709447.8666337
943,-19.355852220673114,-24.999361253809184,-0.8152981903403997,1.3444940340705216,1731709447.8666337
944,-52.25949203083292,-40.04497877554968,-20.92100035212934,-32.77835316164419,1731709447.8825052
945,147.91491319751367,167.2464560684748,134.11281241104007,111.28633303148672,1731709447.8825052
946,54.22293950757012,64.47774518607184,56.4724893309176,61.29883022373542,1731709447.883114
947,-95.62737191701308,-93.71628303965554,-63.08463245257735,-63.77090409444645,1731709447.883114
948,90.29053468024358,116.61195056838915,92.33439000602812,60.004824839066714,1731709447.8966527
949,120.49022682243958,133.58361656730995,108.943285709247,97.51976129459217,1731709447.8966527
950,-97.22804909804836,-87.32853391533718,-63.18186985142529,-54.85124270012602,1731709447.9126625
951,17.53826084220782,37.19143510935828,28.800969558767974,14.68845707597211,1731709447.9126625
952,152.2793764458038,161.9881567307748,137.57221987005323,110.69542883848771,1731709447.913024
953,-19.51666791876778,-26.72719503333792,-6.8627164186909795,-4.343893798533827,1731709447.913024
954,-63.8644015933387,-47.31160438945517,-34.50057709123939,-38.272266196552664,1731709447.9268343
955,140.10600209003314,171.139691922348,131.9474103366956,104.90232380712405,1731709447.9268343
956,59.32416304713115,64.03269709134474,61.798106867820024,60.98093872750178,1731709447.9426606
957,-101.11754505196586,-94.61385902902111,-63.56333964690566,-56.87452857615426,1731709447.9426606
958,84.38149275025353,105.11923800455406,88.4112349525094,67.1592534543015,1731709447.943058
959,116.02478627534583,120.7071410198696,109.60150810144842,95.87420531408861,1731709447.943058
960,-84.48247004905716,-88.62253930000588,-53.44691026676446,-41.61199685698375,1731709447.9566271
961,11.659138111863285,26.76085413293913,25.70059249550104,8.925271244253963,1731709447.9566271
962,136.25390513567254,152.48133104341105,124.60972662363201,103.77661392046139,1731709447.972461
963,-25.672543245833367,-29.479761400725693,-1.0770911872386932,-0.9779838384129107,1731709447.972461
964,-61.34744892315939,-56.82964977668598,-30.334328540600836,-41.447441258933395,1731709447.9730587
965,135.40868774568662,164.05258150631562,124.6172064235434,104.33385901385918,1731709447.9730587
966,48.15682177944109,55.090596297290176,53.20381676964462,53.39268171740696,1731709447.9865985
967,-93.83595983823761,-86.43843772588298,-57.84877251461148,-57.01290487451479,1731709447.9865985
968,81.41201218543574,103.87011141935363,87.65203526150435,65.35288177570328,1731709448.002417
969,114.03889939887449,120.09005752718076,107.28277012892067,96.5436474061571,1731709448.002417
970,-83.3904192619957,-93.71254313969985,-56.188256934285164,-49.25635236641392,1731709448.0030527
971,15.713189663831145,18.981862225104123,21.70637934282422,5.297568287234753,1731709448.0030527
972,156.95051149046049,170.3206538320519,136.3230932848528,122.10586360329762,1731709448.0173705
973,-23.55949977086857,-26.682316233869642,-0.6881415918469429,4.515929196495563,1731709448.0173705
974,-63.25105800060555,-59.82904954114929,-34.99798378534615,-40.78173906682059,1731709448.032464
975,143.58036914886907,164.15729870507494,137.46376277133822,109.83151194872335,1731709448.032464
976,42.47965364670381,43.73999993177131,46.60663324780762,43.900815629865974,1731709448.0331583
977,-95.60493251727894,-97.11585209937766,-60.05531348846853,-63.39317419892177,1731709448.0331583
978,79.49344350816682,99.2513349740766,81.69063473213464,57.43177366955206,1731709448.0466487
979,111.69024222670123,122.58083089767024,104.20109256543219,94.0977528351359,1731709448.0466487
980,-86.99568281928077,-90.66078477585688,-55.06628694757819,-43.93447472946718,1731709448.0622637
981,-2.7207772177644074,14.30324738053605,20.15432086121291,0.1290265484713018,1731709448.0622637
982,149.1266407831572,164.10868000565097,133.82484011445194,110.73282783804461,1731709448.0630715
983,-23.694136169273406,-28.922516307327896,-11.758245460689068,-7.8257406572811306,1731709448.0630715
984,-70.94777210941538,-64.76945738261566,-39.11561363656074,-47.28168518980965,1731709448.0769188
985,140.21071928879246,156.8345745918341,122.84075394459069,100.21996906260028,1731709448.0769188
986,43.23137353779748,46.627202697563916,49.654651711694896,47.049811392556876,1731709448.092352
987,-94.10897253500298,-97.74041539197788,-65.67638312187046,-60.92484022816643,1731709448.092352
988,94.00425533624366,115.1085107862018,92.4877259042114,66.62444776063785,1731709448.093042
989,119.75720643112436,130.38974200515077,112.86270086281002,102.4003307367675,1731709448.093042
990,-82.07771437754855,-89.33686019154266,-55.59735274128616,-43.38470943598077,1731709448.1066544
991,1.6212466307915747,20.163670611102134,15.857175812125206,2.3206079225055873,1731709448.1066544
992,145.24836452910677,165.31292779138312,134.5129817062989,110.83006523689255,1731709448.1225896
993,-37.52054630545899,-32.49412076501176,-12.06117735709995,-2.821754516568035,1731709448.1225896
994,-68.75993063533679,-63.553989897016436,-41.34085411019623,-46.675821396987885,1731709448.1230607
995,141.8263560696505,157.9789839782752,131.3228470440954,103.2904269262217,1731709448.1230607
996,49.525625163223594,50.97670634603128,51.337606691755354,50.363362753298134,1731709448.136711
997,-106.19632919179276,-101.18112335121259,-69.39758357778192,-59.152127649169415,1731709448.136711
998,83.25578286359087,102.09365894040093,85.32207758910954,60.05344353849068,1731709448.152361
999,129.7876181122847,137.58904941985384,116.82699481584132,103.45872242422774,1731709448.152361
1000,-76.9802307379432,-78.33033462194726,-44.3926124740392,-36.08068482251838,1731709448.15325
1001,-1.849380528088659,20.500261607114226,18.344209282658994,5.054474790114909,1731709448.15325
1002,150.08031527185813,164.49575965106487,134.08289321139455,112.91505946218967,1731709448.1675704
1003,-21.5474335947074,-24.791796806268394,-2.9881800645962358,3.8932358538731933,1731709448.1680875
1004,-61.89721421664581,-48.873012620955706,-28.094128467142582,-35.90303957462311,1731709448.1680875
1005,144.61258153663948,161.60855688527226,128.25986898038536,105.3455019518733,1731709448.1821816
1006,43.59788373345509,44.77408226951957,46.42337814997882,45.80629465728998,1731709448.1821816
1007,-96.87649850221351,-100.0834627142176,-59.67384369298816,-55.735729039646685,1731709448.1976404
1008,83.78310875734314,99.38410142250359,82.51715262234211,56.158337734639645,1731709448.1976404
1009,121.98618680471554,125.3913657143712,106.3477951399982,94.7129663778469,1731709448.1980827
1010,-82.0590148777701,-89.20783364307135,-54.79701415076852,-44.471150373108685,1731709448.1980827
1011,9.44885723805055,26.037183491513133,26.863701381720603,16.758491701446474,1731709448.2119868
1012,138.7184992064722,162.77166577149183,135.79576739110053,118.8353210920468,1731709448.2119868
1013,-21.07246630033478,-17.379315094090998,-2.580530969426036,8.953320493921638,1731709448.2272613
1014,-56.354682482313365,-46.932004543952644,-23.082662526518106,-28.307302764616907,1731709448.2272613
1015,129.86615601135418,162.19572117831558,129.2808616682887,103.98417836800218,1731709448.2280865
1016,48.22040007868782,54.123832158744335,59.28115419764072,56.3976913318038,1731709448.2280865
1017,-95.71712951594964,-94.24921878334135,-55.94890333712101,-55.95638313703239,1731709448.2416463
1018,77.85162742761895,101.73275859467685,82.42739502340555,57.1007925234735,1731709448.2416463
1019,109.27052695536986,125.48860311321914,101.74771819449961,89.96329343412071,1731709448.2575195
1020,-85.85127343283966,-88.0073257572949,-49.8753058090806,-44.98725656699389,1731709448.2575195
1021,1.5539284315891564,19.73171216621995,20.281477459706366,4.076490951701999,1731709448.2579312
1022,150.04665617225692,168.7891648001969,131.60333954077214,111.50511717889458,1731709448.2579312
1023,-33.27575985575095,-26.822562482208014,-6.197014226578176,-3.938114653341472,1731709448.2715638
1024,-59.29424384748563,-52.956983372569084,-31.35158132854849,-38.393812945112586,1731709448.2715638
1025,133.51255846815184,158.5193995218724,127.06310099456459,95.62924186699092,1731709448.2872744
1026,53.44878021674231,58.42097720783204,58.33869940880686,53.764801762998104,1731709448.2872744
1027,-106.08787209307775,-103.30351657606661,-65.8484185198322,-67.07510570529848,1731709448.2880294
1028,81.96925727883354,105.17720645386726,89.49206603970379,63.365124949254096,1731709448.2880294
1029,116.21926107304171,126.41609830223024,108.8684877101332,99.1223084256053,1731709448.3018925
1030,-96.92511720163748,-96.94942655134946,-56.79038082715124,-53.18511726986617,1731709448.3018925
1031,9.183324341196567,20.629288155585527,26.343855287879705,10.808310871943831,1731709448.3173895
1032,143.50931104971096,159.64884930849075,131.86513253767043,107.33512872830033,1731709448.3173895
1033,-31.394590178038925,-28.748610959388316,-0.2169141974300146,-0.19073489774018526,1731709448.318289
1034,-72.58210839005187,-64.10188524052501,-37.48127735592425,-45.88483255635947,1731709448.318289
1035,137.22253922419623,153.56029218062758,126.18422450497746,97.31219684705138,1731709448.331854
1036,67.69779904792085,56.195736734196544,58.26764130964875,53.716183063574135,1731709448.331854
1037,-77.66463242983446,-82.97342041693628,-58.21902261022478,-51.13191219419241,1731709448.347628
1038,102.18341653933749,103.73734497092664,82.3002384249121,56.091019535437226,1731709448.347628
1039,147.72417829977348,128.92931107245386,114.57931494247168,97.2336589479819,1731709448.3481045
1040,-40.43018847098574,-80.08247775118798,-43.625932983122766,-45.19295106455684,1731709448.3481045
1041,63.999037991743535,37.33542125765234,36.071335072629154,10.359522877261043,1731709448.3615909
1042,211.5680104433559,185.35318170394748,145.63918407447636,120.47339727263898,1731709448.3615909
1043,40.99117346433923,-9.173974591307342,9.058037692680955,12.633382050320506,1731709448.3775456
1044,-5.884732580278069,-48.68601762317121,-23.871781417168677,-36.10873407218605,1731709448.3775456
1045,202.6333894492127,171.64270846638829,139.22151575051248,109.63516720104963,1731709448.378044
1046,126.12251615570858,71.66396295093,70.67288946267217,64.53571363538504,1731709448.378044
1047,-28.76170060923323,-84.09539040364325,-43.38657938595861,-49.23578291665763,1731709448.3915887
1048,150.5365830664523,108.80490941088647,101.05957660265267,73.75456702616066,1731709448.3915887
1049,175.07406667573377,138.2902806615457,124.34793362673372,110.31956889294088,1731709448.4073284
1050,-14.557560577522963,-72.6662561390549,-33.8311349991709,-21.964432439766824,1731709448.4073284
1051,76.19485174724832,40.084247725084424,42.14119270071387,22.342162335291505,1731709448.4080036
1052,218.33348946319893,179.21226597670466,153.1077642859891,123.30450153909624,1731709448.4080036
1053,45.456614011432976,-12.274351654574275,8.624209297820926,11.470273164100945,1731709448.422165
1054,6.359699874650687,-43.296821787022054,-21.044417050667107,-28.643893760629,1731709448.422165
1055,204.0395918325521,172.50662535615265,135.66861079260707,107.03219683188945,1731709448.4374032
1056,139.99006519140676,86.97511336952448,88.1905808551237,86.36176977679133,1731709448.4374032
1057,-22.79282027995214,-79.24848006106913,-38.28535584639758,-46.9469641437754,1731709448.4382136
1058,164.2059174044989,129.03402827121317,110.89551348611712,84.06547120399773,1731709448.4382136
1059,198.4110423992388,157.36377043556422,138.92606365401298,120.54445537179708,1731709448.4518108
1060,-0.6152135427109897,-62.26933426223695,-25.77165059465915,-20.797583653591573,1731709448.4518108
1061,78.9436782146804,42.062654801644385,44.29163517523557,24.384147711098194,1731709448.4674697
1062,225.5365367778577,186.15726019442081,154.45786816999316,131.5472410414368,1731709448.4674697
1063,54.783924500923604,-6.193274326622486,18.48632548097521,20.214159260503948,1731709448.4681225
1064,4.3663331982679665,-43.285602087154984,-20.48343205731362,-28.827148858457804,1731709448.4681225
1065,213.57259681960568,185.66733330022544,149.5473795281723,118.96621759049594,1731709448.4821188
1066,132.13627528445795,82.04218532796949,82.23666012566537,76.61559049226344,1731709448.4821188
1067,-16.031081160064787,-64.0308271413669,-31.138407031074166,-34.52301649097353,1731709448.513945
1068,149.1602998827584,119.95729107875377,98.22473243623972,70.49711416475475,1731709448.513945
1069,197.2965522124432,155.5536588570103,138.24540186207741,118.9063791912049,1731709448.5144985
1070,-12.721269699279219,-69.01985368225724,-31.897606722079217,-25.120908002369106,1731709448.5144985
1071,68.39342043967918,41.75224310532212,37.193305059336126,21.69141974300146,1731709448.5153365
1072,224.36968799168244,193.536082806997,157.25157343689352,136.42781048361212,1731709448.5153365
1073,33.87040394870564,-9.835936883464456,5.879122730344534,12.229472855105996,1731709448.5160327
1074,-0.9181454391218722,-41.206217711791396,-22.446879534050822,-25.038630203343928,1731709448.5160327
1075,195.79311243025586,172.03913786169142,137.74799516797066,109.36963430419564,1731709448.5267692
1076,124.06183128012344,76.31639849580824,72.42690254189074,71.52184675261378,1731709448.5267692
1077,-37.50932660559192,-81.1857482381165,-48.9852096196264,-45.45848396141082,1731709448.541967
1078,144.08151574293151,116.0902345245704,96.17900716047734,70.59809146355838,1731709448.541967
1079,180.89335100678727,143.41768350079656,124.24695632793009,105.72697174735367,1731709448.5576313
1080,-27.755667521152645,-75.77037310227752,-41.12393991276622,-36.71833776496351,1731709448.5576313
1081,51.466633240226656,27.690219271928072,22.708672530949116,4.00917275249958,1731709448.558139
1082,211.48199274437502,183.43835292663425,150.35145801864564,126.93594439607114,1731709448.558139
1083,26.914190031122416,-18.53120428044349,4.899268941953778,6.533605222590268,1731709448.5717125
1084,-8.67469794722274,-46.928264643996954,-25.981084992177784,-31.40393992792815,1731709448.5717125
1085,195.13862993801013,173.2994841467589,138.92980355396867,104.72093865927309,1731709448.587391
1086,115.59469778044149,70.89728346001357,71.0356597583741,63.18934965133667,1731709448.587391
1087,-43.32113113673404,-89.02831844519824,-53.03552127163857,-53.372112267650664,1731709448.5880947
1088,132.68230067798868,105.35298175178468,89.83239693567157,65.01442082971334,1731709448.5880947
1089,178.79900703160092,143.0661329049617,130.53372815344483,108.00831072032452,1731709448.602114
1090,-26.158730240073055,-70.30637926701456,-31.471258127130568,-31.81532892305404,1731709448.602114
1091,53.65821461426094,36.57622156664729,32.30525581724942,8.639168897643685,1731709448.6175869
1092,211.1940204477869,191.43425903189927,158.1080105267465,128.56280087679625,1731709448.6175869
1093,31.877037272322923,-11.107502868399024,8.799984595738351,8.489572899416089,1731709448.6181028
1094,-13.11021929467097,-52.30998068023473,-24.93017310462892,-34.440738691948354,1731709448.6181028
1095,181.38701780093834,149.95128872338682,123.44661773741245,97.5291110444814,1731709448.6319473
1096,104.80508640827611,60.593859082087874,61.749488168396056,60.84069247916341,1731709448.6319473
1097,-48.10072328010574,-86.75819917209446,-55.07750664744526,-49.78180831018835,1731709448.6474323
1098,128.69930722517893,103.2361983768642,86.38420917652547,61.66721036937088,1731709448.6474323
1099,164.7257634983398,130.37291245535016,115.30485553387552,100.4574527097866,1731709448.6480808
1100,-35.64311652770266,-78.49676016997546,-42.60494029521942,-35.11018078401685,1731709448.6480808
1101,47.939907582011074,25.917506692931056,29.208618653938174,5.819284331053495,1731709448.662108
1102,196.4812540221028,176.25400511175394,150.11958422139287,125.9860098073259,1731709448.662108
1103,24.39349746098742,-18.52372448053211,7.176868014968932,8.007125805132091,1731709448.6776445
1104,-28.36901111388579,-50.37271250318736,-26.11572139058262,-34.56041549053043,1731709448.6776445
1105,175.34333947254345,161.1859481902793,134.25866850931197,107.12195443082601,1731709448.6780984
1106,95.86672551417723,73.20854163262993,66.71233540959656,66.78339350875467,1731709448.6780984
1107,-46.294351601507515,-80.41532884724438,-51.266548592597246,-47.579007236287,1731709448.6918976
1108,120.3331510243006,104.01783746760339,88.6730279494077,59.47562899533659,1731709448.6918976
1109,164.0974603057839,139.1766369510442,121.92073855549097,100.91746040433645,1731709448.7237568
1110,-34.79415923776105,-70.23158126790076,-33.45714500360191,-35.259776782244444,1731709448.7237568
1111,32.02663327055052,15.374728717841208,17.831842988729477,-2.8722431659698486,1731709448.7243702
1112,176.91035755397752,164.53689855057746,131.4649632424116,110.88803368620574,1731709448.7243702
1113,1.1948980358429253,-30.259530541487038,-3.257452861405909,-4.267225849442184,1731709448.725466
1114,-41.466140758711845,-53.12901877053082,-32.23419771809131,-44.841400468721986,1731709448.725466
1115,161.95823753112927,156.12586355023086,127.82230068556964,101.78137729410082,1731709448.7258306
1116,79.95719110267237,60.6574373813346,67.2172219036147,58.64163130521774,1731709448.7258306
1117,-75.63760665385053,-100.8239629054442,-65.25003452692181,-61.10996527597308,1731709448.7367225
1118,107.4005769775249,105.61851464863867,86.24583287816495,53.675044164061546,1731709448.7367225
1119,155.41715250862762,136.15853768680245,119.37386668566614,99.14474782533944,1731709448.7517035
1120,-41.892489353660494,-74.39782981853932,-36.1648325715214,-32.368834116496146,1731709448.7517035
1121,35.9236090243794,17.147441296838224,22.90314732864499,7.057191216386855,1731709448.7673645
1122,189.02015361050144,174.43267383333296,144.27412059064955,120.31258157454431,1731709448.7673645
1123,8.996329343412071,-17.543870692141354,6.926294717937708,1.8400307781994343,1731709448.7680793
1124,-38.13014999823645,-58.925863701850176,-36.71833776496351,-42.11875330097973,1731709448.7680793
1125,161.12049994105473,161.45522098708898,127.2463560923934,98.2322122361511,1731709448.7818503
1126,87.62024611188099,65.6988225216046,67.19852240383625,55.5823931414634,1731709448.7818503
1127,-61.156714025419205,-88.90116184670478,-52.80738737434149,-62.89763745479286,1731709448.7977192
1128,98.49587518302724,91.4854327160865,69.86133117228746,43.91764517966658,1731709448.7977192
1129,146.0524430195801,127.50066928938031,108.18408601824194,83.3735897121951,1731709448.7982512
1130,-53.501138816121966,-77.27007298450917,-47.8744593327865,-45.90353205613792,1731709448.7982512
1131,27.075005729217082,16.51165830437094,24.48512500990182,3.5529049579054117,1731709448.811918
1132,185.90107704745606,174.47007283288985,142.41539031267166,120.0545284776017,1731709448.811918
1133,19.232435522135347,-14.660407826304436,10.337083477526903,10.8569295713678,1731709448.8274791
1134,-49.63034236198291,-58.4359368076548,-36.400446268729866,-43.4651172850281,1731709448.8274791
1135,163.2859020153992,165.06048454437405,136.59984588157386,102.24512488860637,1731709448.828143
1136,84.3179144510068,69.16944968048483,73.08886483404785,63.754074544645846,1731709448.828143
1137,-70.67849931260571,-87.27430536597967,-55.20466324593872,-51.711596687324345,1731709448.8419392
1138,98.97832227731124,97.84700254071504,81.12590983882546,52.74006917513907,1731709448.8419392
1139,150.6413002652116,140.26494783814996,120.6865715701133,102.18902638927102,1731709448.8576674
1140,-50.13896875595674,-79.28213916067034,-45.55946126021445,-38.26291644666344,1731709448.8576674
1141,24.670250057708472,19.499838368967175,22.92932662833482,2.5954905692487955,1731709448.8580997
1142,183.27192737860605,178.69989968277514,144.00484779383987,121.00446306634694,1731709448.8580997
1143,7.952897255774587,-13.912427835166454,4.226086949929595,8.635428997687995,1731709448.8717432
1144,-37.830958001781255,-51.277768292464316,-29.519030350260437,-36.16857247147709,1731709448.8717432
1145,151.75205055205151,161.26822598930448,124.97623681928962,100.20313951279968,1731709448.8875897
1146,101.67105024540797,87.79041155986488,78.41822227090597,73.93782212398946,1731709448.8875897
1147,-66.55338966147974,-82.6330895209685,-50.67564439959824,-54.6174989528954,1731709448.8881252
1148,93.45075014280155,103.55408987309784,86.9676335696131,60.519061082974076,1731709448.8881252
1149,141.3476488753222,131.63699864037335,113.26287015806884,103.6401075720787,1731709448.9017353
1150,-64.32440928788856,-75.10093101020902,-43.59975368343294,-35.55148897878826,1731709448.9017353
1151,29.52464020019397,31.063609031960368,33.12429390754551,11.582470162771642,1731709448.917704
1152,184.4387761647813,172.16255456022918,146.26748726703227,123.2446631398052,1731709448.917704
1153,-5.84733358072117,-17.73460558988154,4.241046549752355,9.065517492592335,1731709448.9181116
1154,-39.831804478075355,-46.1690649529919,-32.783963011577725,-31.33662172872573,1731709448.9181116
1155,148.4272794914432,162.13588277902454,123.80564813315868,99.30182362347841,1731709448.931913
1156,77.00641003763303,62.35909186117351,59.24375519808382,59.25497489795089,1731709448.931913
1157,-71.29184290533885,-93.80043078865856,-57.11201222334057,-57.01103492453694,1731709448.9477053
1158,90.83656007377431,86.89657547045499,75.17946890927851,49.23578291665763,1731709448.9477053
1159,144.03289704350755,134.23996900953352,116.0902345245704,97.9741591392085,1731709448.9481463
1160,-67.16673325421289,-82.31145812477916,-45.79133505746722,-40.043108825571835,1731709448.9481463
1161,-3.42387840943411,1.851250478066504,9.731219684705138,-8.388595600612462,1731709448.9619129
1162,157.33198128594086,158.50443992204964,130.21583665721118,109.65760660078377,1731709448.9619129
1163,0.04674874944612384,-16.272304707206786,5.837983830831945,4.41682184766978,1731709448.9776833
1164,-48.98707956960425,-49.64343201182783,-32.002323920838535,-38.92487873882055,1731709448.9776833
1165,138.40060771023855,149.65583662688732,124.88647922035307,91.99405911006033,1731709448.978114
1166,65.06490947911516,56.20695643406361,59.767341191880405,50.83646009769291,1731709448.978114
1167,-93.95937653677538,-104.03653696738183,-64.08692564070225,-61.86542506702244,1731709448.9921687
1168,68.73749123560265,81.57095793355256,65.31361282616854,41.17629851214588,1731709448.9921687
1169,125.3745361645706,125.97479010745883,106.9386993329972,89.2265331428498,1731709449.0076423
1170,-74.11546737188473,-82.85748351830989,-43.82788758073002,-42.79567519295961,1731709449.0076423
1171,-1.6661254302598536,14.843662924133241,11.6722277617082,-3.979253552854061,1731709449.0081203
1172,156.91685239085928,159.17014211416245,136.74944187980145,111.02640998456627,1731709449.0081203
1173,-20.926610202062875,-31.935005721636117,-11.025225069373846,-7.7453328082337976,1731709449.0218651
1174,-69.5340899261646,-65.26125422678888,-40.5367756197229,-44.489849872887135,1731709449.0218651
1175,124.1889878786169,136.39041148405522,108.47953811474144,80.17597525008023,1731709449.0520122
1176,45.882962606381625,55.58987294137478,50.23059630487114,46.78988834563643,1731709449.0520122
1177,-113.81824530148879,-107.72407832369208,-73.70594832673669,-77.50194678176194,1731709449.0686388
1178,70.8692342103459,84.94434769358486,68.12975749280304,38.37511344533414,1731709449.0686388
1179,130.32616370590404,134.86453230213374,119.43744498491287,102.21146578900516,1731709449.0693295
1180,-72.11462089559063,-75.43752200622112,-39.71773752942681,-35.38319348078221,1731709449.0693295
1181,2.1822316241450608,16.747272001579404,20.14684106130153,1.7390534793958068,1731709449.0700965
1182,156.2773294984363,170.98822597414255,140.38088473677635,114.2763830460608,1731709449.0700965
1183,-13.600146188866347,-20.225378960371017,-1.0359522877261043,3.590303957462311,1731709449.070828
1184,-61.10809532599524,-54.82693335041404,-25.685632895678282,-36.09377447236329,1731709449.070828
1185,135.790157541167,151.67912250291556,125.33526721503586,98.67352043092251,1731709449.0818515
1186,72.73918418819085,55.43653704319149,58.38731810823083,58.75382830388844,1731709449.0818515
1187,-84.73304334608838,-98.72587903030217,-63.335205749608576,-58.518214606679976,1731709449.0972865
1188,68.14284714264795,84.15896870288998,75.87883020099252,47.62762593571097,1731709449.0972865
1189,121.17836841428652,122.80335494503379,107.40992672741413,92.07633690908551,1731709449.0980144
1190,-80.3910194975324,-91.01046542171389,-53.20007686968893,-43.81666788086295,1731709449.0980144
1191,-6.965563667472452,9.170234691351652,17.528911092318594,-6.327910725027323,1731709449.1119888
1192,155.78366270428523,159.27859921287745,134.00435531232506,109.94931879732758,1731709449.1119888
1193,-8.62981914775446,-17.75330508965999,5.609849933534861,3.504286258481443,1731709449.1276164
1194,-72.74292408814654,-69.7005154741928,-47.55282793659717,-54.520261554047465,1731709449.1276164
1195,137.15148112503812,140.9194303303957,110.39810679201037,80.28443234879524,1731709449.1281328
1196,58.740738654043525,56.47996913082898,58.00958821270615,48.78699492197484,1731709449.1281328
1197,-92.48211605427787,-104.54142346139997,-67.24340120330453,-68.81789908464998,1731709449.1418688
1198,72.58958818996325,88.35513645317405,70.31385906692594,40.51059632003307,1731709449.1418688
1199,110.47103484114632,117.84424760378897,102.57049618475139,87.487479663454,1731709449.1574376
1200,-68.56171593768522,-85.7072872845456,-48.15495182946324,-41.696144605986774,1731709449.1574376
1201,-3.0349288140423596,3.6389226568862796,3.500546358525753,-7.969726805575192,1731709449.157996
1202,160.56699474761263,172.31963035836816,139.00834145303816,111.43779897969216,1731709449.157996
1203,-9.203893790952861,-21.611011893954128,1.0939207370392978,2.932081565260887,1731709449.1723492
1204,-61.90282406657934,-62.1216082139872,-32.83445166097954,-43.38657938595861,1731709449.1732893
1205,137.213189474307,151.9016465502791,123.9309347816743,96.61657545529306,1731709449.1732893
1206,77.9619544763118,64.46652548620477,70.14369361894205,64.38611763715744,1731709449.186754
1207,-97.07284324988723,-105.65030379826203,-66.78152355877683,-64.88726423121989,1731709449.186754
1208,78.32472477201372,87.3173142154701,76.30330884596333,45.2079106643796,1731709449.20293
1209,125.466163713485,121.80293170688674,111.1816158327274,94.32401678245515,1731709449.20293
1210,-76.85868398938328,-88.5028625014238,-52.970073022414,-44.62074637133628,1731709449.2030735
1211,6.533605222590268,15.369118867907673,18.68641012860462,3.975513652898371,1731709449.2030735
1212,165.0380451446399,178.35395893687382,144.99405133211985,121.78236225713044,1731709449.2167072
1213,-6.496206223033369,-16.71174295200035,3.906325503718108,5.852943430654705,1731709449.2167072
1214,-53.48430926632136,-48.91602147044614,-28.088518617209047,-33.595521301962435,1731709449.2323027
1215,145.49706787616014,156.99913018988445,129.67916101356968,100.18444001302123,1731709449.2323027
1216,79.7047478556633,68.35228154016659,72.65316648920998,67.38925730157644,1731709449.232999
1217,-87.4126816643402,-97.02235460048541,-58.99505185103044,-57.343886020593345,1731709449.232999
1218,83.67278170865029,90.12971898214892,79.37002680962905,54.81197375059128,1731709449.2793472
1219,132.8786454256624,129.25655231857672,118.87085014162585,98.10131573770195,1731709449.2793472
1220,-64.72644853312522,-74.67645236523822,-42.94340124120936,-35.68986527714878,1731709449.2800193
1221,-0.39268949534744024,11.797514410223812,15.821646762546152,5.329357436858118,1731709449.2800193
