Unnamed: 0,ch1 - AF7,ch2 - AF8,ch3 - TP9,ch4 - TP10,timestamp
0,-10.800831072032452,-24.791796806268398,8.945840694010258,-16.95670639909804,1731709443.1611884
109,-311.0699187144637,738.5330038499087,785.0199602991343,3133.8753471700475,1731709443.6962807
110,-539.6301646064967,502.1563670504838,595.7099644420668,3018.600410835817,1731709443.7120287
111,-418.4985449416563,700.1840697042644,751.0953278010711,3138.774616112001,1731709443.7120287
112,-252.40584800951183,838.5154892653227,870.966601180844,3225.0391484899446,1731709443.712675
113,-547.1585832173005,567.1857474800199,622.6409840229899,2988.999102686532,1731709443.712675
114,-584.1723730787635,569.1080560572445,621.0552664417773,2933.6074444428086,1731709443.7263415
115,-401.9420078378171,768.8598525905982,784.2458010083064,3110.4299143478274,1731709443.7263415
116,-636.7478866558522,572.5861630160362,601.9481175681576,2942.6168634360656,1731709443.742058
117,-788.5990445567295,418.8313960377127,462.8500185161829,2778.2220810838044,1731709443.742058
118,-622.0313803302124,651.7000066787004,655.0509570389986,2907.5590412514284,1731709443.7426856
119,-782.9891946231946,577.5078713577241,575.144254585728,2845.454262587242,1731709443.7426856
120,-1148.9346653874964,274.41515924874693,299.67818344943225,2597.9850825192407,1731709443.7563071
121,-974.1953197577968,417.8552821492776,434.4155591530725,2585.546175266616,1731709443.7563071
122,-817.0110645201057,504.52372372243553,514.7224309016019,2607.821019402705,1731709443.772041
123,-1081.724923283793,200.15196582861245,243.852696810849,2413.308822707273,1731709443.772041
124,-1100.7423145584762,219.92481689434496,253.92424739152196,2518.9198575560004,1731709443.7727425
125,-791.9686944168061,444.41605163458735,420.2338585210964,2570.3210425470024,1731709443.7727425
108,-307.57311225589365,711.3102720724419,753.111133877188,3029.266605509445,1731709443.6962807
107,-559.0888640759513,420.8808612134308,496.8307495135814,2753.273208479397,1731709443.6826556
106,-496.0902493223548,506.1169211035594,541.3318190863356,2782.3060518354177,1731709443.6826556
105,-353.3457478135824,655.069656538777,662.4896180508658,2768.823712495156,1731709443.6820312
87,-3092.867344155908,-873.2404603539035,-755.0446621542796,2083.354279166553,1731709443.591997
88,-2816.3578409319744,-534.9178906623274,-474.35021087992936,1822.303652409464,1731709443.5926418
89,-2511.918764838949,-340.06910297088325,-400.7639393517748,1941.3596275988969,1731709443.5926418
90,-2514.757348905317,-465.1911958884448,-583.2112187901512,1535.999351201579,1731709443.6062613
91,-2390.1925010811538,-338.50956468936056,-363.7277100905776,1688.9949184888974,1731709443.6062613
92,-2191.3906391365454,-138.3613387607038,-128.1364522818476,2065.08299793303,1731709443.621984
93,-2208.48946173396,-318.9611076209694,-222.65120396204293,1863.6819055192173,1731709443.621984
94,-2134.349685012363,-261.7518579987809,-216.173697238788,1760.228792944923,1731709443.622644
126,-911.0059701064602,264.8223158624023,260.21849901694804,2277.9207044113427,1731709443.7863328
95,-1801.779081452638,6.163355126976967,-57.295267321169376,2109.9692772012204,1731709443.622644
97,-1947.8520939219743,-272.44049207214266,-253.56147709582,1916.6762878913432,1731709443.6363254
98,-1514.1545955603942,47.5042092371732,16.373282006010413,2055.2695004493,1731709443.6519935
99,-1288.182360437699,144.48729488812387,119.6880182819441,2242.8292231271043,1731709443.6519935
100,-1290.8152500065044,-9.966833381913602,-69.30408607888967,2298.2956793699414,1731709443.6526487
101,-873.0085865566507,282.74765635002404,201.4684106130153,2371.8969104979187,1731709443.6526487
102,-480.6818615049124,515.6162669910118,419.3886411311105,2455.427576008253,1731709443.666316
103,-640.1773749152198,324.8589298510924,294.2815078133717,2340.276056372561,1731709443.666316
104,-597.0002299267799,402.9031621264294,394.9222156209871,2424.8912928700447,1731709443.6820312
96,-1877.1418054597448,-128.90313177276403,-179.98642526753247,2103.2748562805355,1731709443.6363254
86,-2939.3481908747926,-672.7481636293232,-617.3565053856,2307.4715239112265,1731709443.591997
127,-1016.9872550508009,171.4856326682493,197.2198842633516,2210.707222407684,1731709443.7863328
129,-863.7897331658751,447.8866787934676,430.6008611982688,2420.803582218476,1731709443.8020191
153,-1566.7001899378374,-16.204986508004367,-38.70796454139054,1717.1264459555969,1731709443.9219975
154,-1620.0049840062857,-30.12115424312651,-56.49866863060743,1651.046153638512,1731709443.9226336
155,-1440.6655614310876,164.84731024689972,87.4837397634983,1719.355426329188,1731709443.9226336
156,-1638.334233689122,-33.92463249806315,-74.23701412044466,1593.0777043253183,1731709443.936292
157,-1809.774987557903,-175.70423981826752,-198.48023054841903,1475.551348217763,1731709443.936292
158,-1640.129385667853,17.72338589001447,-46.468256949447095,1608.530970942229,1731709443.951995
159,-1709.732663743198,-14.8960215235129,-75.56467860471457,1597.0756573779508,1731709443.951995
160,-1991.4032289059835,-279.5687413876876,-305.67698297835886,1373.156627330929,1731709443.952633
161,-1877.7214899528767,-124.92761811986566,-181.0822159545496,1444.656034683809,1731709443.952633
162,-1769.3616286367178,-9.069257392548025,-104.24597136490048,1483.4574967240917,1731709443.9662716
163,-2050.85267860163,-277.5491954116151,-328.2996378103271,1270.533772546798,1731709443.9662716
164,-2092.7320783054456,-271.471857983619,-326.3137509338558,1312.805861745961,1731709443.9820368
165,-1861.531463044696,-31.83402842283249,-120.33876087423414,1501.046246215701,1731709443.9820368
166,-2023.7384039228784,-192.77688311599195,-254.85548248048872,1382.626054018736,1731709443.9827733
167,-2190.8932324424386,-330.98488597851247,-367.56484744511545,1287.1015293505045,1731709443.9827733
168,-1939.6205741195008,-77.62536348029971,-149.7755134254694,1434.438628004864,1731709443.996354
169,-1974.050093111582,-82.5208925222978,-151.90351650025696,1276.1361426804217,1731709443.996354
152,-1316.3550268039107,250.8537895279005,186.84914168622345,1940.6228673076257,1731709443.9219975
151,-1438.6011366555467,154.82437836565077,112.59342806600034,1870.4660840388387,1731709443.9062333
150,-1560.929524306208,9.372189288958907,3.23127356171608,1810.0180810550228,1731709443.9062333
149,-1295.837935646996,280.45135777723044,231.0397995626554,2022.377080339007,1731709443.892611
130,-1101.419236450456,221.8508653715253,241.0776910437271,2226.325044622645,1731709443.8026495
131,-1014.2683477830142,365.8295338656753,367.7817616425455,2318.143328434788,1731709443.8026495
132,-892.4859855258837,518.1780984606594,486.6507418341935,2434.087706861086,1731709443.8162968
133,-1142.752610760741,270.0918348999694,275.4249322367832,2238.561997277662,1731709443.8162968
135,-907.0678554531188,545.0941584417596,501.0418768636882,2395.892108613625,1731709443.8320005
136,-1116.446154472418,349.66194635722786,333.03435115423054,2219.739080800675,1731709443.8326046
137,-1276.0538648813963,207.82998043764383,217.86413201875985,2076.089523502625,1731709443.8326046
138,-1038.2859852984548,457.240168582648,423.1472405865789,2267.8902927301824,1731709443.846281
128,-800.0880172206089,464.9630619911477,447.965216692537,2408.3235360663384,1731709443.8020191
139,-1028.47622771468,448.16343139018863,412.3725888142362,2263.454771382734,1731709443.846281
141,-1223.7925029005855,292.7406690316275,269.699145404622,2053.4294696711004,1731709443.8620272
142,-1124.348563078791,414.2799377916381,364.12413948588073,2119.199350291863,1731709443.862598
143,-1391.549455313012,160.10511710308492,136.76066157966852,1939.8300085170197,1731709443.862598
144,-1421.7229681555182,147.64751035068184,118.86524029169232,1936.9502855511384,1731709443.8762991
145,-1165.5660004904494,398.8079716749489,337.4287336021662,2115.410831636749,1731709443.8762991
146,-1332.8592053083703,218.44381651189175,190.66757954098284,2012.52618385572,1731709443.892014
147,-1500.3319253241643,63.46984214801341,54.66985755227506,1888.9972883192825,1731709443.892014
148,-1283.690740590915,302.3260326180607,255.91013426799327,2046.8210664493963,1731709443.892611
140,-1319.8667928623036,161.3018850889057,162.77540567144752,2023.3157952278848,1731709443.8620272
85,-2508.663181927521,-646.0602375455201,-647.3243237305433,2236.843513248022,1731709443.5762663
134,-1127.4526800420135,307.05326616205275,307.4197763577104,2236.4863528022543,1731709443.8320005
83,-2171.079242477193,-1133.391641171649,-1174.3360658865422,1726.2574116974138,1731709443.5626736
23,-91.61632921453564,-179.88544796872884,-141.28220062609762,1995.42362135835,1731709443.2629683
24,-131.79033453855664,-167.44280081614852,-152.5879181921482,1923.56892350968,1731709443.2764952
25,138.56329335831106,123.85426683258264,87.39398216456175,2149.253186335787,1731709443.2764952
26,1.970927276648581,-31.83776832278818,-44.75538276974112,2125.0410740226507,1731709443.2920911
27,-150.61699091549963,-236.79550559446216,-161.6683952845633,1745.9760342137888,1731709443.2920911
28,-23.88674101699144,-98.3107501352206,-8.47835319954902,1591.1366962483153,1731709443.2929308
29,-86.14111567940563,-125.23428991623224,-58.46959590725601,1296.413880240172,1731709443.2929308
30,-305.04493988584727,-389.0281332908198,-273.3492877613753,1063.1189210042355,1731709443.3065383
31,-152.69637529086322,-222.2136356672272,-93.89018838759512,1123.2527723917738,1731709443.3065383
32,8.231519802473485,-96.73625225387514,-71.58542505186051,994.009309723042,1731709443.3221228
33,-319.72030731197447,-436.8165749246255,-423.9363594772294,919.9892098000272,1731709443.3221228
34,-432.66902587376535,-440.234843484126,-360.2159440321848,963.3683093860744,1731709443.3228033
35,-442.04495506268,-283.3011615434661,-274.84524774365127,1091.0447539733725,1731709443.3228033
36,-886.9172744918615,-548.9948740955442,-532.1279252953827,916.9561509359628,1731709443.336374
37,-1279.0682242456824,-750.1902720117941,-708.643723404035,646.2958512427285,1731709443.336374
38,-1153.991010127589,-561.9798067416996,-585.1260475674644,719.5081327753142,1731709443.3521292
39,-1197.0933571169153,-621.9079636316746,-655.1369747379795,676.9144121799618,1731709443.3521292
22,182.5706961369142,86.9676335696131,91.60510951466858,2214.99688765686,1731709443.2629683
21,40.2039245236665,-42.3543669981882,-29.126340854913,2118.163398004137,1731709443.26231
20,-71.49940735287964,-183.6777065237984,-145.41479007713497,2076.482212997973,1731709443.26231
18,147.70734874997288,41.88313960377127,45.275228863582015,2310.480273425579,1731709443.246385
84,-2086.7295388765638,-1061.1105947280305,-1083.5537343621254,1849.019627742935,1731709443.5762663
1,-219.6892031971365,-201.6479258108884,-164.05445145629346,317.904585883487,1731709443.1611884
2,-220.2165290908888,-236.5598918972537,-274.4824774479493,793.4496947992593,1731709443.172202
3,-563.87967591919,-631.8373980140314,-687.9994756486267,1040.333580524195,1731709443.172202
4,-692.2330423984677,-763.7324497513473,-916.929971636273,1389.7842225339264,1731709443.1728904
5,-585.0961283678189,-661.4424460632727,-877.4104488044977,1221.3316487297416,1731709443.1728904
6,-826.9255393026397,-910.35522751417,-1050.9156274488196,1138.3806677125394,1731709443.18649
7,-959.0487249372528,-1006.0031688809396,-1177.2606676518917,1364.581036732532,1731709443.18649
40,-1460.389793797396,-864.6125111561269,-870.9927804805338,454.2519885180518,1731709443.3529313
8,-694.8360127676278,-742.8787675984204,-939.3469319706784,1724.2621750710532,1731709443.2022047
10,-798.543438538909,-882.1264626486227,-903.746824292466,2352.860819723457,1731709443.202938
11,-494.8411227371544,-539.3945509092882,-553.7295874394476,2083.810546961148,1731709443.202938
12,-183.40469382703304,-252.1216156128794,-248.2620388586074,1759.458373554051,1731709443.2165756
13,-213.761461767368,-322.6336893774569,-283.33482064306736,1977.8947102660316,1731709443.2165756
14,-100.22183901257812,-196.6065406706184,-165.32227754127234,2127.606645392254,1731709443.2322807
15,189.1192609593272,70.72150816209614,79.1475027622655,2351.6864911373705,1731709443.2322807
16,57.81511341501027,-76.97088098805398,-49.295621315948665,2259.479257729836,1731709443.2328951
17,-55.16726424638182,-179.36186197493225,-130.6496650520712,2170.548176683485,1731709443.2328951
9,-643.1131963804364,-704.8963436484337,-839.4729036539793,2102.2837827922776,1731709443.2022047
41,-1303.459851756692,-695.2287022629753,-769.4844158831984,601.1627385774627,1731709443.3529313
19,132.37375893164426,24.39162751100957,25.842708693817254,2286.309300011955,1731709443.246385
43,-1242.7425759760663,-892.2279324289411,-952.6609758129345,643.2328731790185,1731709443.3664043
65,-1723.805907276459,-1105.0955581068993,-1107.3843768797817,1674.0858073155396,1731709443.472686
66,-1829.4132022252304,-1304.133033748716,-1199.2363197915256,1698.383937327657,1731709443.4863076
67,-1807.4674692852425,-1317.6939109880475,-1250.312133486383,1663.419612641912,1731709443.4863076
68,-1573.241274960339,-1030.2040614942089,-1072.7379436902702,1944.7947257081976,1731709443.5019898
69,-1476.8977122018114,-997.4126186827198,-998.6729649677872,2065.4289386789314,1731709443.5019898
70,-1752.1094701411205,-1248.2402289109305,-1187.6501097287985,1967.357542140875,1731709443.5026965
71,-1737.8903705095872,-1101.3294788515195,-1011.8972512111068,2040.3416897761635,1731709443.5026965
73,-2001.9983654804528,-1250.5589668834582,-1185.3425914561376,1855.1680232700887,1731709443.5163088
64,-2033.944590901956,-1443.7659384943545,-1258.0686859944835,1435.7008442399092,1731709443.472686
74,-2119.4499235888943,-1298.3661080170425,-1217.285076977685,1786.495980283711,1731709443.531975
76,-2108.5705546177924,-1192.6989746689796,-1200.9417141713202,1773.8139795339666,1731709443.5326831
77,-2305.835317680612,-1356.6374892266467,-1297.068362732418,1554.2743723350577,1731709443.5326831
78,-2191.080227440223,-1121.5024992125109,-1084.3241537529975,1714.6973809343765,1731709443.5462873
79,-2508.6762715773657,-1128.073503434658,-1108.9551348611712,1722.528731441591,1731709443.5462873
80,-2765.311946436763,-1345.1185973631218,-1262.1077779466286,1445.9107711189426,1731709443.5620124
81,-2525.909730573185,-1123.9035149840638,-1094.8519721282646,1501.481944560539,1731709443.5620124
42,-1218.324769165367,-661.6369208609685,-736.008571379818,686.5932732652873,1731709443.3664043
82,-2165.7872840398923,-944.631410608068,-966.2405525520444,1803.467646282632,1731709443.5626736
75,-1835.0380117585885,-1033.917782150209,-1053.0772896232083,1947.5435521756297,1731709443.531975
63,-2003.842136158608,-1421.0236068638042,-1423.6602363325655,1381.0160270878114,1731709443.472047
72,-1644.2769347187132,-961.0757507132366,-915.6958046508952,2156.4506238005124,1731709443.5163088
49,-1799.6174192782491,-1353.6979278614745,-1462.8581277681517,80.0955674010329,1731709443.396286
62,-1799.9128713747486,-1173.733941993676,-1246.4824759317562,1508.0828679823317,1731709443.472047
46,-1772.8285158956423,-1074.379759770818,-1114.348070597276,127.53058848902585,1731709443.382848
47,-2065.808538524434,-1374.2860771175474,-1381.6013214308769,610.5106185167097,1731709443.382848
48,-1843.901574653573,-1223.6092478027567,-1317.4283780911935,518.7671327036805,1731709443.396286
44,-1434.4760270044208,-943.741314418614,-996.1747117973864,518.7241238541901,1731709443.3820698
50,-2087.458819367923,-1623.9954572590068,-1729.1801435127854,-270.9725813395344,1731709443.4119964
51,-2175.6120012234896,-1372.950932833366,-1628.2701629083604,40.72190066752955,1731709443.4119964
53,-2353.50034261588,-1413.9551959475502,-1596.290278387256,350.9615615918301,1731709443.4126897
52,-2081.441320339218,-1210.190486761741,-1453.2091858824715,321.11715994542465,1731709443.4126897
54,-2341.3381879599765,-1415.911163624376,-1556.7857151553037,465.2678638375364,1731709443.426299
55,-2139.15919635538,-1328.2815677626058,-1423.364784236066,812.5661934227683,1731709443.426299
56,-2354.465236804448,-1478.2253766860813,-1537.2858767863363,837.1560356314294,1731709443.442
57,-2538.606690922752,-1603.093156406656,-1606.010278372094,869.9063395434059,1731709443.442
58,-2193.28676841408,-1231.855727205053,-1297.8462619232014,1176.8174895071425,1731709443.442727
59,-1978.911963053979,-1218.5716025624424,-1252.4139572614804,1261.3541881055571,1731709443.442727
60,-2169.2466914989054,-1577.9797282041982,-1582.396550051868,1227.489394006785,1731709443.4563248
61,-1905.7071613213047,-1386.9157192679122,-1391.1118870181965,1368.0385742415674,1731709443.4563248
45,-1353.2267004670575,-768.6990368925035,-833.747116821818,502.08156905137,1731709443.3820698
301,6.25498267589137,159.5927508091554,165.42138489009812,-1667.5353725431487,1731709444.6581547
303,-10.855059621389955,140.45568273589015,194.7048015431501,-1437.8718561641872,1731709444.671742
302,159.70681775780395,322.8094646753744,307.91905300179496,-1499.1351573383436,1731709444.6581547
304,73.12439388362691,178.1987530887127,232.66478609340265,-1455.3297091573477,1731709444.671742
316,114.99257388757542,118.66328569408506,150.37576736835763,-1407.8890782194212,1731709444.7317789
299,103.08473242865875,152.68515559099615,181.005548005458,-1635.353533424437,1731709444.6572542
298,155.88090010313317,137.26180817373097,188.7396611138247,-1626.1458997335285,1731709444.6415887
305,329.0195685517974,412.4885257128626,421.83640565210953,-1428.189255178906,1731709444.6871629
297,34.28927274374291,-0.4263485949486494,62.86584830516949,-1577.415003310889,1731709444.6415887
300,-145.0538897314109,-8.42225470021367,38.32836469588801,-1775.3454685658216,1731709444.6572542
306,152.74686394026503,241.8181912349537,291.2129198997281,-1497.115611362271,1731709444.6871629
314,-4.938537891488522,28.269903765060008,76.97649083798751,-1471.7553497627378,1731709444.718083
308,154.99080391367897,261.5760827008635,280.6065636253916,-1466.3885933263227,1731709444.687834
309,125.12396286753938,229.9963674750179,264.0238472218625,-1444.7644917825237,1731709444.7014947
310,-103.41384362475948,-23.587549020536244,52.13607533229515,-1636.1688316147774,1731709444.7014947
311,30.960761783178896,112.58594826608896,144.44428603863344,-1584.965861321427,1731709444.7173858
312,183.52624057559296,225.72540172562003,224.22757179336625,-1404.5306480592117,1731709444.7173858
313,16.532227754127234,30.52132353838533,81.38209298579022,-1482.9114713305607,1731709444.718083
315,220.2707576402463,257.3425159510225,251.0950130750425,-1322.4099248321727,1731709444.7317789
317,-23.9933281657286,-7.371342812664807,38.87065018946305,-1530.2286855699494,1731709444.7473145
296,228.2292647459544,220.5531200869009,253.37635204801336,-1230.8758734166622,1731709444.6293354
307,-3.992343202698976,93.97994598653167,159.5347823598422,-1622.9408054715022,1731709444.687834
295,392.1229005041532,431.6592528857291,418.6986295892857,-929.2005833908916,1731709444.6293354
276,309.1569598871283,326.3100110339001,378.2254322688095,-990.897712959908,1731709444.5375297
293,336.20391636667773,267.9189530257136,343.2461479832418,-839.7085173511878,1731709444.6285508
272,341.9371829987504,276.4272254249081,218.07169646630064,-1755.1836679046974,1731709444.5079467
318,167.79248146200553,211.55118089355528,200.5540050738491,-1390.1881317291409,1731709444.7473145
273,166.47977657755837,127.0257019950077,142.24896476464346,-1709.2763959486035,1731709444.521948
274,178.59331253403798,149.96998822316527,185.0483798575588,-1474.7846687268466,1731709444.521948
275,410.6877638841979,428.4616384236142,454.2800377677195,-1038.0241923015565,1731709444.5375297
277,225.74223127542064,224.60343173891303,283.43018809193745,-1102.7805600343272,1731709444.5379128
278,446.4935660599731,432.58674807474017,425.1050782133825,-1023.8985901689156,1731709444.5379128
279,463.7008457561024,440.2161439843476,441.91218861425295,-1034.5012065432966,1731709444.5518682
280,258.2457017903216,228.60886459145692,292.50692528439686,-1106.1502098944038,1731709444.5518682
281,398.3984526298009,382.3112729704008,418.9267634865828,-883.1137962369248,1731709444.5672927
282,485.8111342941411,456.79886038787663,479.4346048696898,-819.142807494849,1731709444.5672927
283,280.8122581229545,244.31270450539887,320.3093415549956,-929.6680708853528,1731709444.5679188
284,285.7414462645538,246.91567487455904,318.40947237750515,-936.5008681043984,1731709444.5679188
285,501.97498190263286,465.0042008906603,488.8703724578954,-759.5811608005315,1731709444.581735
286,354.4471483505331,303.50036120414734,357.005239920225,-910.4711644127964,1731709444.581735
287,197.5920043089427,175.68928021844476,261.00948785757646,-966.221853052266,1731709444.5974476
288,396.19565155589953,391.75452035851777,441.863569914829,-725.8136041006073,1731709444.5974476
289,409.6667711962946,397.7383602876216,462.0964286751114,-665.1599066192284,1731709444.59789
290,235.19295846344903,204.53512857668105,320.96756394719705,-789.1488098502159,1731709444.59789
291,429.46580156171694,391.42540916241705,467.6688796090893,-684.3867322914302,1731709444.6279795
292,574.0802530483343,486.366509437561,538.14355437411,-620.1053318530321,1731709444.6279795
294,232.9116194904782,239.31619816459715,278.1083104549907,-970.9902254957706,1731709444.6285508
319,184.4013771652244,210.40303160715848,213.03031132603064,-1376.6048150900751,1731709444.7479093
361,44.51041932264343,117.3543207095936,123.87483628233896,-1666.0693317605185,1731709444.9581552
321,84.79662164533511,126.03462850674988,147.54466310190037,-1461.2761500868946,1731709444.7615557
348,36.5182531173341,168.21322020702064,143.2026392533444,-1680.0602974947542,1731709444.8974783
349,88.46172360191122,164.4434010516852,149.85218137456104,-1668.2048146352172,1731709444.897958
350,-102.36667163716628,-63.0659329527989,-27.11240472877398,-1804.6326251188293,1731709444.897958
351,6.064247778151184,66.89185060746968,68.81976903462783,-1744.850324327126,1731709444.9115975
352,139.21216600062326,199.2730893390253,186.79865303682163,-1647.5568269798532,1731709444.9115975
353,-82.94163126731291,-25.565956097096205,4.549588296096772,-1809.3224596632645,1731709444.9275236
354,-89.10498639428988,-32.810142311267555,-20.014074612874538,-1867.945391468704,1731709444.9275236
355,127.88400903483851,170.77879157662392,153.59208133025095,-1707.283029272221,1731709444.9279437
356,19.651304317172617,33.68527890089899,49.58546356251463,-1776.579635551199,1731709444.9279437
357,-114.91777588846162,-81.00623304024339,-42.38241624785587,-1873.4729636032132,1731709444.9417205
358,85.63809913536534,144.9622621824965,137.8620621166192,-1690.629254769534,1731709444.9417205
359,98.25652158586308,150.49357421696186,165.07731409417465,-1641.999335645698,1731709444.9571624
360,-101.79072704399005,-34.09292799606919,9.725609834771603,-1764.451139994897,1731709444.9571624
362,178.72420903248712,243.04861832037568,237.6799919339828,-1575.436596234329,1731709444.9581552
363,-0.7348903412930667,48.03527503088117,81.15395908849314,-1688.396534495987,1731709444.9717271
364,-24.02324736537412,55.84418613836169,79.22791061131284,-1702.5370962284503,1731709444.9717271
365,166.78644837392494,273.9588914541528,242.3511269786395,-1540.520890248008,1731709444.9875636
366,49.095536668319255,134.9916889006272,141.02601747913286,-1606.9676927607509,1731709444.9875636
367,-71.50501720281318,17.65606769081205,45.63612920930609,-1703.2888161195442,1731709444.9880288
368,134.43631375720724,226.0694725215435,206.2311732065864,-1560.61537270993,1731709444.9880288
271,196.2605999247171,144.56957268714905,117.59928415669128,-2050.127138010226,1731709444.5079467
347,-155.63032680610195,-42.18233160022646,-9.011288943234833,-1839.862482701428,1731709444.8974783
346,-12.463216602336615,81.76543273124844,79.22791061131284,-1753.295018427074,1731709444.881762
345,102.09739884035662,199.80789503268895,175.19748337427154,-1703.7675233138723,1731709444.881762
344,-107.99896097043528,-18.8603154765442,-6.142785677220672,-1900.048692688346,1731709444.8678827
322,226.5313501660712,278.6487259985879,266.9260095874779,-1336.9543957598507,1731709444.7615557
323,26.068972641136497,77.8123584780842,113.70978820277378,-1467.132833417505,1731709444.7772243
324,19.696183116640896,80.28069244883955,118.60905714472756,-1498.671409743838,1731709444.7772243
325,216.44110008561984,288.7688952786848,283.7518194881268,-1378.366307969205,1731709444.7779436
326,99.75622146809474,159.80592510662973,182.88671768317,-1456.145007347688,1731709444.7779436
327,-49.61912266211584,38.1282800482586,80.66777209425345,-1588.8890163749456,1731709444.791648
328,106.19632919179276,234.72360101900995,237.5416156356223,-1495.9263231763616,1731709444.791648
329,111.20779513241725,210.92661760095507,235.6866252576001,-1488.6783970622346,1731709444.8075123
330,-76.78575594024733,0.8826163895428181,56.05923038581386,-1678.95328710787,1731709444.8075123
331,46.87403609463945,128.49548267759383,156.60270079458132,-1632.1633987622336,1731709444.807948
320,-35.22424773266539,-12.44264715258032,35.54961902881041,-1542.1402669288218,1731709444.7479093
332,123.26897248951718,258.3186298394576,212.84331632824612,-1544.200951804407,1731709444.807948
334,-64.84051548177376,48.71967672277242,62.09542891429737,-1703.135480221361,1731709444.8379807
335,184.07600586907935,276.199091527611,242.68397807469591,-1535.2251919107512,1731709444.8388836
336,73.05707568442449,133.97817601263523,140.80910328170285,-1616.0107708536088,1731709444.8388836
337,-66.99469785625115,-3.863316654227674,20.455382807645947,-1770.9847452174872,1731709444.8394732
338,100.5453403587453,182.96338563226163,154.92722561443225,-1705.27096309606,1731709444.8394732
339,116.96724106417967,173.24712554737926,145.77943032281473,-1761.339543231763,1731709444.851969
340,-119.6300498326309,-65.83719881996512,-42.09070405131206,-1974.2483078092337,1731709444.851969
341,-9.48625623760745,70.35125806648284,57.24103877181187,-1884.5281078722328,1731709444.8673947
342,97.53098099445924,170.38610208127648,137.7498651179485,-1819.6333638411013,1731709444.8673947
343,-112.30358581943436,-19.391381270252168,-9.658291635569183,-1917.0427980870008,1731709444.8678827
333,-65.91760666901246,43.49503648467362,57.34575597057119,-1684.4135410431772,1731709444.8379807
270,59.36530194664374,3.500546358525753,-1.9092189273796976,-2053.9717551646754,1731709444.507352
234,-210.40116165718064,-327.17392792366445,-512.8319114740007,-1543.4006132138893,1731709444.3271086
268,273.811165405903,199.6545591345057,124.48817987507208,-2100.095941318199,1731709444.4914432
196,-1966.0878461059183,-77.42340888269246,-92.57374360319228,2442.395894612652,1731709444.1328397
197,-2232.5295386491343,-221.34223897755143,-282.10813345760107,2129.246591522824,1731709444.1328397
198,113.94166200002655,226.0058942222968,165.38772579049692,-319.24534001760185,1731709444.1471293
199,53.77789141284302,188.37128096818924,113.35449770698324,-382.0606996733695,1731709444.1478443
200,-263.38058442948386,-90.06427073292434,-107.91294327145442,-617.8314726799726,1731709444.1478443
201,-203.29161184141407,21.33986914716661,-22.39265098469332,-662.7140120482072,1731709444.1614635
202,-133.38914176961407,122.07407445367426,29.97342819487676,-649.9310339996591,1731709444.1614635
203,-387.43680585967377,-152.15408979728818,-131.42569429287687,-839.6038001524284,1731709444.1774735
204,-383.9138201014139,-96.24258545972408,-150.41316636791453,-791.4338887231424,1731709444.1774735
205,-294.2983373631723,132.6579913282767,28.974874906707555,-567.6345354747027,1731709444.1778464
206,-393.2747896905057,-72.39324344228953,-128.01864543324336,-667.9984906855971,1731709444.1778464
207,-483.3166210236959,-154.06517867464572,-194.151296349708,-807.3621226344258,1731709444.1914537
208,-258.3242396893911,2.4683339707553387,-22.95737587800249,-627.054065970704,1731709444.1914537
209,-256.6861635087989,8.156721803359687,-55.63288179086521,-568.6704877624288,1731709444.207111
210,-365.24049962265417,-251.73266601748765,-241.38623279007152,-678.0663013663143,1731709444.207111
211,-93.44701024284586,-140.42202363628894,-127.01635224511848,-622.18097632844,1731709444.2078488
212,78.21813762327656,-75.33654470741749,-102.75562123255804,-559.2646393738687,1731709444.2078488
213,-194.90675614075732,-327.2375062229112,-343.7772137769498,-679.1284329537302,1731709444.22148
214,-252.0412077638321,-379.0575600089505,-394.56131527526304,-678.93769805599,1731709444.22148
215,-10.574567124713212,-161.27570578921586,-202.3416772526689,-497.65726740378886,1731709444.2371163
216,-104.60313181066886,-307.6217309553176,-330.1751976381056,-642.5896103866398,1731709444.2371163
194,-1999.3953951112928,-78.61269706860185,-95.3001306708902,2393.3097076942213,1731709444.132157
193,-2026.464790990576,-128.45060387812555,-131.58837994094938,2479.0095151788555,1731709444.1166737
192,-1902.9882540535184,65.61280482262373,23.72218541894108,2697.7899226867594,1731709444.1166737
191,-2052.520673981868,-58.79122730344534,-75.78907260205597,2550.7108771293424,1731709444.1031203
269,278.2653862531297,220.4409230882302,168.5853402526118,-1968.9189503723755,1731709444.507352
170,-2402.6688073333357,-321.65383558906615,-375.5046550510451,1681.2551955305971,1731709444.0120733
171,-2228.4754870971665,-222.0976987686008,-279.6659787865356,1918.0731405247932,1731709444.0120733
172,-2083.875995210372,-68.90391678363085,-169.234212894924,2167.670323667582,1731709444.012929
173,-2308.1727551529184,-268.03862982429564,-345.92578630149364,1998.088300076779,1731709444.012929
174,-2251.7301850216463,-211.82419359032065,-277.81846820842475,2116.26913867658,1731709444.0263186
175,-1933.6329942904413,87.05365126859397,-19.196906472556293,2558.6806039349176,1731709444.0263186
176,-2118.9562567947432,-19.79155056551099,-110.65615988895296,2517.246252325829,1731709444.0427313
177,-2289.2862603766844,-141.33455922547728,-220.92711008246988,2435.910908089485,1731709444.0427313
178,-2041.9629364069551,106.40389363933356,-17.053943797945976,2654.620257498231,1731709444.043457
217,-188.42550951754677,-408.73366615734994,-400.4217385058291,-759.8579133972526,1731709444.2378087
179,-1959.314887286164,76.13314339797944,-13.792751036584376,2673.2561789774336,1731709444.043457
181,-2032.2466763220727,-68.38033078983426,-119.99469007831068,2573.079218764324,1731709444.0563352
182,-1897.995487612672,29.4217929514125,-36.72955746483058,2625.119926647749,1731709444.0720754
183,-2116.532801623456,-233.43333553429693,-236.19712160155177,2460.250177001115,1731709444.0720754
184,-2102.044429195113,-236.09614430274812,-237.01615969184783,2478.220396288205,1731709444.072858
185,-1902.853617655113,-28.441939163021743,-66.86567130777985,2593.6711079203524,1731709444.072858
186,-2117.583713511005,-205.33172726724297,-213.9933355646208,2466.656625625212,1731709444.0863645
187,-2277.44573711697,-376.4583295397461,-351.62913373392075,2327.5921856728382,1731709444.0863645
188,-1998.9765263162556,-111.07876858394592,-99.91890711616723,2508.464967229869,1731709444.1023612
189,-1986.316964966245,-42.28330889903009,-50.37645240314305,2489.144644058775,1731709444.1023612
190,-2170.985744978301,-221.5254940753803,-198.37925324961543,2358.7081533041783,1731709444.1031203
180,-2181.491123953834,-182.83996893372387,-226.6977757140994,2424.0965641294606,1731709444.0563352
218,88.71603679889813,-109.10410140734166,-128.0373449330218,-534.3307263692841,1731709444.2378087
195,-1788.438858310692,176.0071717146784,101.1942130010575,2629.8359404918738,1731709444.132157
220,-75.54036925500259,-253.13138860091567,-217.2189992764033,-519.8012150414288,1731709444.25148
246,-139.87412829278037,-160.49032679852098,-164.90153879625723,-2772.8441049475223,1731709444.38729
247,-255.7661481196992,-237.25177338905632,-205.367256316822,-2433.0218353737146,1731709444.388206
248,84.5759675479494,68.21203529182822,56.80721037695184,-2024.7444370109588,1731709444.388206
249,282.65602880110964,247.9927660617977,232.0888415002264,-1703.606707615778,1731709444.4015508
250,160.55577504774556,50.469949902035296,54.92604069923982,-1840.1654145978391,1731709444.4015508
251,382.3767212196253,244.66051520127803,194.5963444444351,-1707.4475848702714,1731709444.4174397
252,528.3450164902024,428.92164611816406,363.5201456430368,-1635.4058920238167,1731709444.4174397
253,322.6953977267258,174.18210053630173,146.3815542156808,-1932.5334637034684,1731709444.4178724
254,283.411488592159,154.90665616467595,115.6994149792008,-1974.087492111139,1731709444.4178724
255,521.0559514765628,406.8599762795493,324.29607490776107,-1801.8351799519733,1731709444.4317384
245,-255.53427432244644,-214.27756796125323,-243.5067560649477,-2860.0884911138564,1731709444.38729
256,393.4580447883345,214.96944945305583,167.23149646865204,-2097.1339405532926,1731709444.4317384
258,405.3247473477386,294.1805305145681,197.4461482106708,-2207.6928630433977,1731709444.4474947
259,410.9832159806974,284.2174370326102,205.43083461606875,-2190.021835752763,1731709444.4479775
260,248.2526891087182,65.93443621881306,1.5875875311903656,-2507.34486719314,1731709444.4479775
261,306.688625916373,142.74076160881668,29.711635197978467,-2689.870684530586,1731709444.4616673
262,383.6445473046042,221.5180142754689,75.66752585349604,-2719.730045776814,1731709444.4616673
263,141.9722121679224,19.35024237073958,-78.48367052013054,-2764.4480295469984,1731709444.4776163
264,116.80268546612932,-62.69194295722991,-123.27645228942856,-2707.055524826981,1731709444.4776163
265,348.8485181168653,227.41583650559187,123.74019988393412,-2225.180635236204,1731709444.477995
266,219.2273255526088,118.5024699959904,52.62226232653484,-2164.695233252831,1731709444.477995
219,125.47925336332992,-46.82354744523764,-65.22946507716551,-388.1043780017644,1731709444.25148
257,218.5279642608948,73.27959973178804,18.473235831130296,-2388.0233591068536,1731709444.4474947
244,-515.0047933482565,-545.5466863363981,-559.0645547262393,-2572.4434357718565,1731709444.371596
267,78.60334731871262,-13.25794534292072,-45.73710650810972,-2283.511854845099,1731709444.4914432
242,-217.7949438695796,-288.63425888028,-419.3119731820189,-2294.64366706321,1731709444.35807
243,-411.6676176725887,-511.0161900455132,-555.9828771627508,-2484.3538322155364,1731709444.371596
222,233.4389453842305,90.4494804283604,47.76787218404934,-161.93766808137298,1731709444.26715
223,-47.65941508533433,-155.91268925275654,-209.95237366249785,-490.7421923857182,1731709444.267881
224,-106.51048078807072,-191.5801151301712,-292.1703342883848,-778.9650622708723,1731709444.267881
225,32.42306266585365,1.8175913784652948,-110.44485554145648,-532.860945686698,1731709444.2814631
226,-172.7628085031174,-237.71178108360616,-257.85675219492987,-761.8475401736796,1731709444.2814631
227,-348.0406997264363,-451.922030845657,-393.9853706820868,-1009.2456621425226,1731709444.297192
228,-102.3292726376094,-189.96447834931317,-224.7960365866311,-1105.3610910037532,1731709444.297192
229,-51.81070403615013,-136.3941513840109,-184.4387761647813,-1446.870055457577,1731709444.2978988
230,-280.0081796324812,-329.27949159871787,-331.52530152210966,-1652.5084545211866,1731709444.2978988
231,-120.56128492159768,-155.9949670517817,-247.71414351509884,-1474.320921132341,1731709444.3114617
221,84.57222764799371,-53.211296569556,-61.18289332510904,-385.16107673663646,1731709444.26715
233,-242.5007229768671,-283.9257248360664,-536.2324654967524,-1765.621728681028,1731709444.3271086
235,55.6740206903778,-148.3057327428833,-305.241284633521,-1416.8797977128995,1731709444.3279147
236,12.934443996753544,-252.05429741367695,-399.7410767138936,-1665.6953417649493,1731709444.3279147
237,-220.13238134188575,-340.66000716388226,-477.6544124907814,-1559.014695528895,1731709444.3414476
238,-7.3432935629971325,-199.1010539410636,-286.47446665586904,-1884.922667317558,1731709444.3414476
239,-39.94400147674605,-74.26319342013448,-159.0149362660013,-2076.8992118430324,1731709444.3572524
240,-525.3792758253403,-370.37351231183857,-419.3418923816644,-2461.312308588531,1731709444.3572524
241,-619.8603684059344,-342.85158853791654,-411.5404610740952,-2283.465106095653,1731709444.35807
232,-28.847718308214095,2.535652169957757,-256.00550171686336,-1416.4833683175966,1731709444.3114617
517,-5.282608687411994,-37.00257016159594,-8.914051544386894,40.96873406460509,1731709445.7365708
503,13.05412079533562,-6.821577519178391,18.34233933268115,76.04151584906504,1731709445.663003
502,191.4772678813897,194.97220438998195,165.72057688655332,197.80517860641703,1731709445.663003
498,131.21999979531392,133.79118101485074,118.42954194685444,131.73610598919913,1731709445.6465485
500,-45.29205841338262,-67.17234310414642,-31.368410878349096,12.235082705039533,1731709445.662511
499,152.69450534088537,144.83136568404734,135.51340494444594,165.84399358509108,1731709445.6465485
504,-4.22421699995175,-6.45132742356509,14.763255075085908,65.1958059775643,1731709445.6765077
497,-57.38689487008378,-54.00041546020657,-23.16307037556544,7.646225459408015,1731709445.6329656
501,62.21136581292376,65.02190062962472,67.48088485049084,90.42517107864842,1731709445.662511
505,204.8698496227153,201.48337021283805,172.5122352060862,217.05818357830867,1731709445.6765077
510,-5.731396682094783,-44.99099646694958,-7.45923046162352,68.68513263622299,1731709445.706771
507,-26.981508230324835,-45.40612536203116,-16.31157365674153,50.18384755542502,1731709445.6924558
508,168.6302190520801,161.889049381949,146.07862231926993,179.72650222061202,1731709445.6929898
509,195.4378219344653,169.98219288606197,156.13895320007578,207.71591348899528,1731709445.6929898
511,107.1088647809811,91.27225841861218,87.76984211010858,130.16160810785368,1731709445.706771
512,245.99378953548148,223.8816310474649,200.482946974691,240.21938400389627,1731709445.722299
513,60.03100413875654,13.818930336274208,36.196621721144766,101.8094265437685,1731709445.722299
514,30.998160782735795,7.206787214614451,19.89813771424815,70.59996141353622,1731709445.7230475
515,236.6365598463453,216.79826053138825,186.60043833917007,209.84765646373853,1731709445.7230475
496,63.27349740033969,63.346425449475646,68.88708723383024,104.63679091027008,1731709445.6329656
516,124.88460927037522,94.27165818307547,99.07555967615916,145.89536722144112,1731709445.7365708
506,103.70929572125895,81.58217763341963,84.92751814378425,153.77907632803544,1731709445.6924558
495,157.35816058563069,172.07279696129262,148.59931488940492,161.43839143728837,1731709445.6325626
484,-56.11532888514921,-44.018622478470206,-30.594251587521285,-33.91528274817392,1731709445.572991
493,-22.209395886864517,-28.355921464040875,0.3571604457683861,32.206148468423635,1731709445.61677
518,193.4444552580826,173.419160945341,154.52705631917345,172.6880105040036,1731709445.752555
471,35.388803330715746,47.85575983300805,40.70694106770679,73.80505567556247,1731709445.5125332
472,174.78235447918996,183.09802203066647,156.07163500087336,183.694536073599,1731709445.5129704
473,-31.787279673386365,-33.202831806614995,-1.40433243336156,48.38121577678248,1731709445.5129704
474,-40.22075407346711,-27.43216617498547,-6.599053471814841,23.402423972729597,1731709445.5267513
475,158.07248147716746,176.98328560311347,151.830588451121,165.79537488566712,1731709445.5267513
476,47.61079638591036,49.12732581794262,50.288564754184335,93.1702576461248,1731709445.5421789
477,-80.88468629168347,-83.36984981223941,-49.97067325795069,-11.344986515585331,1731709445.5421789
478,108.30189286684616,123.63735263515264,103.33156582573427,112.15398982120678,1731709445.542832
479,117.77131955465302,119.29906868655236,107.97652157070117,121.05495171574876,1731709445.542832
494,-38.71731429127976,-31.205725230276585,-6.337260474916548,20.66855710512027,1731709445.6325626
480,-83.9102653558366,-84.2973450012505,-52.65218152618036,-25.07041935296729,1731709445.556871
482,136.35488243447617,159.3346977122128,132.69726027781144,123.02213909244163,1731709445.572379
483,-53.69935351377353,-55.02140814810991,-31.491827576886863,-8.906571744475514,1731709445.572379
485,135.50592514453456,160.23227370157838,131.0404845974408,111.4022699301131,1731709445.572991
486,6.322300875093788,15.217652919702232,25.49676794791594,43.074297739658505,1731709445.5867696
487,-134.05110406177118,-113.51344345510006,-79.11571361264214,-79.58320110710338,1731709445.5867696
488,57.562670168001205,92.69716030173004,74.81482866359875,44.45058092335239,1731709445.602464
489,85.40996523806825,102.81358968187124,92.0258482596837,83.22212376398966,1731709445.602464
490,-108.61978436307982,-98.7483184300363,-57.62998836720362,-42.42729504732415,1731709445.6029613
491,22.74794148048386,39.33252783399075,46.855336594861,37.66266250377521,1731709445.6029613
492,164.9875564952381,182.58565573673692,156.37082699732855,154.01095012528822,1731709445.61677
481,22.123378187883645,37.645832953974605,35.26164673222229,43.5193458343856,1731709445.556871
519,209.64944176608697,187.33906858041885,171.52116171782836,200.3969292757101,1731709445.752555
569,185.8823775476776,150.04478622227907,136.4857789329253,132.8206769763492,1731709445.99317
521,111.50698712887242,95.77509796526284,92.60927265277132,119.76468623103574,1731709445.7530005
549,170.70960342744365,152.34482469502836,133.31808367045596,139.3430624990724,1731709445.90231
550,-40.43766827089712,-71.27501335553825,-35.61319732805714,-11.019615219440311,1731709445.9030027
551,73.11691408371553,62.49746815953404,61.594282320234925,58.84919575275853,1731709445.9030027
552,200.85693697026,188.8238088628277,154.95714481407776,150.28600976942107,1731709445.9329505
553,35.456121529918164,5.392935736104846,23.9559291661717,42.670388544444,1731709445.9329505
554,6.913205068092793,-7.1020700158551335,5.593020383734256,14.755775275174528,1731709445.933698
555,219.6648938474245,206.9922428475693,177.59101934591308,158.94013826688752,1731709445.933698
556,101.95154274208473,76.09948429837823,74.34360126918182,86.05322803044692,1731709445.9346058
557,-34.3304116432555,-57.47852241899818,-27.463955324608836,-13.158837994094938,1731709445.9346058
558,155.39471310889348,144.70794898550955,121.4065023115836,107.82692557247356,1731709445.946948
559,178.6606307332404,154.42046917043626,141.65806057164446,137.31603672308847,1731709445.946948
560,-24.976921854075044,-59.65514419320971,-27.834205420222133,-4.871219692286104,1731709445.9622977
561,79.51214300794527,63.8438321435824,62.31982291163877,57.0839629736729,1731709445.9622977
562,221.40394732682037,203.15884539298716,173.00216210028157,165.241869692225,1731709445.9630096
563,26.457922236528248,-5.396675636060536,14.149911482352763,35.31026543164626,1731709445.9630096
564,20.634898005519062,-5.033905340358615,13.166317794006318,17.06703344779089,1731709445.976802
565,220.92150023253637,208.37974573113024,175.07032677577808,160.82504784455523,1731709445.976802
566,116.20804137317464,80.39662934746593,82.03283557808027,91.00485557178035,1731709445.992324
567,-20.16367061110213,-56.24435543362051,-24.81984605593607,-8.700877246912569,1731709445.992324
568,165.2119504925795,148.36931104213,126.24593285424636,112.17268932098524,1731709445.99317
470,-71.87152739847079,-81.60461703315377,-58.88285485235974,8.566240848507732,1731709445.5125332
548,144.9005538332276,137.6993764685467,114.49516719346866,106.9592687827535,1731709445.90231
547,-43.39218923589215,-70.93094255961478,-42.13932275073603,-26.12507114047185,1731709445.8867445
546,99.51312797097488,73.05146583449095,70.99639080883935,92.2053634575568,1731709445.8867445
545,205.72254681261256,193.8464945033193,160.82130794459954,153.21061153477058,1731709445.872975
522,248.7800150024705,224.50245444010943,201.57499776175248,219.5302574490197,1731709445.7667444
523,48.57569057447836,21.433366646058857,48.39243547664955,92.27642155671492,1731709445.7667444
524,46.45516729960218,22.020530939102173,42.92096184147522,71.50501720281318,1731709445.7825544
525,238.89171951962635,233.63903003185987,203.377629540395,209.72797966515645,1731709445.7825544
526,143.21385895321146,106.77788363490254,114.68216219125316,143.6028085486032,1731709445.7830007
527,-6.872066168580204,-33.632920301519334,-3.304201610852033,35.94604842411354,1731709445.7830007
528,191.16685618506745,178.61388198379427,157.02904938952997,157.9490647786297,1731709445.7967246
529,211.09678304893896,184.418206715025,166.62563267583027,185.3662713537924,1731709445.7967246
530,2.582400919403881,-38.33397454582155,-6.520515572745353,29.61439779913053,1731709445.8125956
531,112.48684091726318,95.61054236721247,88.0952134062536,97.90497099002825,1731709445.8125956
520,1.0565217374823987,-33.93959209788591,-2.5450019198469818,56.766071477439255,1731709445.7530005
532,239.01139631820843,214.90213125385344,188.1599766206928,197.3302113120444,1731709445.8129992
535,218.5279642608948,221.8845244711265,176.48400895902887,177.02255455264822,1731709445.82657
536,113.0328663107939,84.46190059930086,91.04599447129294,112.79725261358544,1731709445.8426156
537,-25.294813350308686,-56.22565593384206,-24.954482454340905,2.7581762173213065,1731709445.8426156
538,157.3506807857193,151.86237760074437,129.0770371207036,120.87917641783132,1731709445.8430133
539,183.8179527721368,160.42674849927425,141.4598458739929,155.56674850685522,1731709445.8430133
540,-36.39109651884064,-64.49457473587245,-36.69028851529583,-1.677345130126923,1731709445.8566055
541,80.7238705935888,69.04977288190275,62.70877250703052,66.69550585979596,1731709445.8566055
542,220.1249015419744,207.81502083782107,174.46446298295632,170.16357803391293,1731709445.8725033
543,19.83081951504573,-1.5483185816556215,13.46550979046151,41.9635474528186,1731709445.8725033
544,1.209857635665685,-22.450619434006512,-1.8755598277784884,2.825494416523725,1731709445.872975
534,16.842639450449497,-1.3837629836052656,16.73792225169018,39.67472867993638,1731709445.82657
469,146.0861021191813,135.86682549025863,129.60810291441155,174.5878796814941,1731709445.4966152
533,48.18674097908661,6.86271641869098,32.138830269221216,61.96827231580392,1731709445.8129992
467,-71.9425854976289,-70.71402836218476,-37.90201610093936,24.453335860278457,1731709445.4829595
395,72.38015379244462,191.1201074356213,161.3935126378201,-1732.0411669788882,1731709445.13725
396,-37.17647550953552,66.35704491380602,66.4187532630749,-1801.102159560658,1731709445.13725
397,-184.42755646491423,-64.38237773720175,-38.64999609207735,-1916.485552993603,1731709445.1379924
398,16.947356649208814,133.8771987138316,115.04867238691077,-1800.5860533667728,1731709445.1379924
399,31.60028467560187,142.60612521041185,124.39468237617984,177.90891084214672,1731709445.152484
400,-201.76199275953692,-105.10240845475346,-70.88419381016865,-3.173305112402886,1731709445.1529536
401,-90.38029227918014,28.322262364439663,28.76170060923323,61.11931502586231,1731709445.1529536
402,47.0797305922024,154.31949187163264,134.14834146061912,158.2370370752178,1731709445.166569
403,-140.80162348179147,-57.42990371957421,-33.12990375747904,25.863278143573552,1731709445.166569
404,-167.14173886971548,-52.74754897505045,-37.69632160337642,5.4920430849306285,1731709445.1822703
405,41.79151205485687,164.55185815040022,132.98523257439956,165.2119504925795,1731709445.1822703
406,-79.6093804067932,32.33517501689494,28.496167712379247,105.89339729538187,1731709445.182949
407,-214.9114810037427,-117.7619698047638,-89.77442848635837,-2.5898807193152606,1731709445.182949
408,6.797268169466406,103.66628687176852,88.83571359748021,139.20468620071188,1731709445.1967435
409,1.9129588273353877,97.62260854337364,85.49598293704912,134.73924565361813,1731709445.1967435
410,-184.85390505986288,-108.81986901070924,-69.46303182700649,-7.709803758654743,1731709445.2120917
411,-86.64039232349023,11.608649462461472,7.84444015705958,39.91034237714484,1731709445.2120917
412,56.85208917642012,154.95527486409992,134.76542495330796,144.18623294169083,1731709445.212911
413,-131.55659079132602,-56.143378134816885,-29.311465902719647,6.019368978682905,1731709445.212911
414,-137.24497862393036,-53.312273868359625,-30.20530199212953,-12.68761059967801,1731709445.2268343
415,53.83025001222268,146.42456306517124,122.01236610440536,129.73899941286072,1731709445.2268343
394,-134.25305865937844,-36.82679486367852,-15.679530564229935,-1884.587946271524,1731709445.1215713
393,-113.69108870299532,-18.987472075037655,7.246056164149195,-1841.79601097852,1731709445.1215713
392,78.07228152500466,191.69231212884188,159.6170601588674,-1714.0447683921084,1731709445.1079683
391,-49.73505956074223,56.41265093162656,52.61852242657915,-1818.043906359933,1731709445.1079683
468,115.5909578804858,131.86887243762612,113.54149270476772,153.50606363127008,1731709445.4966152
370,-49.99685255764052,21.97565213963389,48.43357437616214,-1691.302436761558,1731709445.0014987
371,83.19968436425552,161.94514788128436,161.0606615417637,-1607.143468058668,1731709445.0171804
372,228.0497495480813,281.4349514655769,258.8104266836308,-1505.788439359516,1731709445.0171804
373,20.511481306981292,73.44789522979409,97.22056929813698,-1651.973648827523,1731709445.0178993
374,3.9960831026546657,75.05979211069643,87.53048851294443,-1681.9339873725548,1731709445.0178993
375,208.1310423840769,277.2013847157359,254.55442053405568,-1538.2245916752145,1731709445.031526
376,86.3187609273009,137.85645226668566,146.95001900894567,-1626.4675311297178,1731709445.031526
377,-55.30003069480881,1.1481492863968017,39.09878408676013,-1740.4671615790576,1731709445.0472083
378,132.54018447967246,214.50196195859465,198.25022670114413,-1608.085922847502,1731709445.0472083
416,-39.1474027861841,32.9410388097167,44.35708342446014,77.00641003763303,1731709445.242313
379,140.62584818387404,198.1660789521411,187.16142333252355,-1602.0160652194172,1731709445.0479467
381,22.66566368145868,113.60694095399232,108.86287786019966,-1704.5529023045674,1731709445.0615098
382,158.36793357366696,223.2608076548204,200.1837549782358,-1615.490924759768,1731709445.0615098
383,-49.98189295781776,3.6426625568419695,37.9992534997873,-1753.1603820286691,1731709445.077538
384,-65.94378596870229,3.582824157550931,28.159576716367155,-1785.8732869410887,1731709445.077538
385,126.889195646625,208.4283644305542,187.0454864338972,-1654.2961267000064,1731709445.078006
386,3.296721810940653,76.80632539000362,86.0943669299595,-1737.4303628150374,1731709445.078006
387,-134.5260713561438,-61.738268468528986,-28.189495916012675,-1856.2357647074384,1731709445.0917268
388,41.32776446035132,134.07915331143886,117.06073856307194,-1742.572725254111,1731709445.0917268
389,46.29061170155183,131.580900141038,129.5968832145445,-1733.021020767279,1731709445.1072614
390,-159.6507192584686,-85.54647158645093,-46.50752589898184,-1886.383098250255,1731709445.1072614
380,-74.2388840704225,-19.866348564624783,19.213736022356898,-1760.277411644347,1731709445.0479467
417,-164.56120790028945,-109.534189902246,-69.21993832988665,-33.459014953579754,1731709445.242313
369,156.12025370029733,230.76678686589003,216.6767137828283,-1539.6569733582437,1731709445.0014987
419,65.94378596870229,113.3862868566066,99.5093880710192,105.09305870486423,1731709445.2429223
445,72.43625229177997,185.5252171019092,146.96123870881274,97.8413926907815,1731709445.3767765
446,-46.09239700390026,50.72052319906652,50.05295105697587,32.572658664081246,1731709445.3927586
447,-162.68003822257742,-74.39782981853932,-47.32282408932224,-67.937152645085,1731709445.3927586
448,25.709942245390263,125.21185051649807,120.49022682243958,82.90049236780033,1731709445.3928232
449,34.255613644141704,119.75159658119082,113.67238920321688,99.16531727509572,1731709445.3928232
450,-156.8383144917898,-83.60920340940356,-41.021092663984746,-27.830465520266443,1731709445.4065683
451,-62.21510571287945,31.0149903325364,36.06572522269562,22.27671408606693,1731709445.4065683
452,84.07108105393127,169.75405898876488,159.93495165510103,136.7139128302224,1731709445.4224868
454,-106.57031918736176,-29.37317425198853,7.773382057901472,-21.83540589129552,1731709445.4230216
455,86.25518262805417,175.65562111884356,142.90718715684488,116.43617527047172,1731709445.4230216
444,-130.5991764026694,-38.97723733820021,-20.911650602240115,-42.0757444514893,1731709445.3767765
456,-11.04953441908583,57.42242391966283,53.07479022117332,50.09035005653277,1731709445.436937
458,47.54347818670794,123.8729663323611,104.2852403144352,89.59865318844095,1731709445.4520507
459,79.201731311623,133.96695631276816,119.8544438299723,125.24737956607714,1731709445.4520507
460,-102.7705808323808,-76.98210068792105,-37.31485180789605,-9.561054236721247,1731709445.4675996
461,14.086333183106037,47.56404763646424,53.87138891173527,75.63386675389484,1731709445.4675996
462,139.5711963963695,165.27365884184837,144.99779123207554,177.8565522427671,1731709445.4680128
463,-47.06477099237964,-41.10898031294346,-8.382985750678927,56.0442707859911,1731709445.4680128
464,-63.34081559954211,-33.77129659987986,-12.29866100428626,36.11808382207528,1731709445.4822285
465,151.1648862590082,183.0830624308437,157.18238528771326,182.8530585835688,1731709445.4822285
466,44.12146972725168,47.10777984187007,55.83857628842816,115.46380128199236,1731709445.4829595
418,42.651689044665545,100.7491649063304,92.46715645445512,84.6881645466201,1731709445.2429223
457,-148.72647148789838,-82.43113492336124,-51.24223924288526,-45.62864940939471,1731709445.436937
443,-108.05505946977064,-35.596367778256536,-15.238222369458526,-20.27212770981714,1731709445.3628433
453,-96.04998061200604,-23.931619816459715,3.767949205357581,10.331473627593368,1731709445.4224868
441,-52.38664862932637,57.47852241899818,38.253566696774215,19.774721015710384,1731709445.3627784
421,-32.87185066053644,30.442785639315844,35.13823003368452,23.36502497317269,1731709445.256577
442,71.62469400139526,163.64306246116757,126.53390515083449,104.35255851363765,1731709445.3628433
422,107.8867639717646,168.8228238997981,137.71994591830298,139.25330490013584,1731709445.2724264
423,-74.65401296550408,-36.004016873426735,-8.6522585474886,18.611612129490823,1731709445.2724264
424,-105.05939960526302,-29.657406648620963,-10.196837229188532,-6.034328578505665,1731709445.2729344
425,80.15540580032393,171.0854633729905,144.54900323739275,137.55539032025263,1731709445.2729344
426,-29.73033469775692,37.82160825189203,39.19228158565238,69.47425152687356,1731709445.2866993
428,42.87234314205125,128.51792207732797,102.84163893153892,105.78868009662256,1731709445.3025217
429,53.108449320774525,113.610680853948,103.13335112808272,122.0722045036964,1731709445.3025217
430,-150.2373910699971,-98.2284723361954,-61.04451702674851,-26.82443243218586,1731709445.3029747
427,-158.1996380756609,-91.6387686142698,-50.64385524997488,-31.60776447551325,1731709445.2866993
439,43.12665633903816,133.5069486182183,124.60411677369848,97.35146579658613,1731709445.3466172
432,75.76102335238829,175.47236602101475,130.82731029996648,151.8268485511653,1731709445.3165507
420,-134.95989975100383,-96.05185056198388,-36.81744511378929,-51.2272796430625,1731709445.256577
433,-111.1479567331262,-37.80290875211358,-25.95303574251011,37.23257400887087,1731709445.3165507
434,-127.23700634250416,-41.16133891232312,-28.33161211432889,-23.664216969627887,1731709445.332773
435,81.06046158960089,165.5653710383922,125.22120026638731,96.42023070761934,1731709445.332773
436,-33.73202765034512,42.18233160022646,46.02133890474215,22.194436287041757,1731709445.3328388
437,-180.42586351232603,-96.5305577563122,-83.52505566040054,-117.12805676227435,1731709445.3328388
438,10.346433227416128,109.02182360831648,80.18158510001376,39.27455938467756,1731709445.3466172
431,-41.488580158445984,45.1705116648227,41.5558983576484,54.40245470544323,1731709445.3029747
440,-174.41210438357666,-86.57494407426566,-53.078530121129006,-58.61732195550576,1731709445.3627784
