,ch1 - AF7,ch2 - AF8,ch3 - TP9,ch4 - TP10,timestamp
0,-143.59345879871398,-237.1881950898096,-243.88261601049453,-151.61554420366883,1731785226.1594417
1,119.64313948247582,-567.015582032036,-537.0627232869156,-320.3579602544196,1731785226.1594417
2,-173.01525175012648,-410.1136892409995,-427.04421634040773,-510.367317403201,1731785226.1740308
3,112.29049616958946,-407.51071887183934,-366.81686745397747,-765.4266244312748,1731785226.1740308
4,232.24030744843185,-192.32061532139778,-147.93922254722565,-643.3936888771132,1731785226.174666
5,-139.29631374962628,-341.3818078553304,-358.9181987475604,-505.4156898618676,1731785226.174666
6,-16.399461305700243,148.1486569447443,-818.9950814465992,-464.3777676480822,1731785226.1884758
7,264.58296226523817,-15.746848763432354,-936.4223302053288,-282.7046475005336,1731785226.1884758
8,-4.82073104288429,7.049711416475475,-976.11014853511,-2.6328895688056946,1731785226.2040343
9,-131.05357424728572,-235.699714907445,-1219.300883053802,-153.64630987960845,1731785226.2040343
10,227.28494000714272,-85.075244192034,-1011.1268318202347,-295.18095375271514,1731785226.2049568
11,127.85595978517085,-565.1512419041246,-538.2370518730022,-324.8308806014247,1731785226.2049568
12,-171.4856326682493,-413.04764075623825,-429.6135276099667,-511.57530508888885,1731785226.2182634
13,99.04003062658012,-435.56370843946934,-392.9737277440727,-794.3248313888907,1731785226.2182634
14,230.25068067200482,-190.7909962395206,-146.52928026393056,-648.412634617649,1731785226.2339242
15,-137.5049016708508,-340.6787066636607,-362.93485129997134,-509.94096880825236,1731785226.2339242
16,-37.46631775610149,125.43624451383948,-841.6065165787004,-492.23254251806065,1731785226.2346222
17,258.03065754286945,-34.30797224352136,-953.3902563042939,-306.3856940199621,1731785226.2346222
18,-15.053097321651876,-13.336483241990209,-991.0323493583128,-28.340961864218116,1731785226.2481163
19,-151.33879160694778,-250.2254863353446,-1240.3490400044248,-176.06327021401376,1731785226.2481163
20,210.75084230303764,-100.25549811217934,-1023.5283400733024,-313.7158979331143,1731785226.2638404
21,120.78006906900555,-567.1745277801529,-546.9210995701142,-328.3875254592858,1731785226.2638404
22,-178.07159649021924,-423.8148127286695,-438.9109188998118,-522.8473635553382,1731785226.264579
23,98.0452172383666,-439.4382447935641,-394.9259555209428,-810.0735501023009,1731785226.264579
24,229.4840011810884,-203.89560568425804,-151.67164270300418,-651.0530039863661,1731785226.278201
25,-128.33840687945485,-339.4258401785046,-360.6572522269562,-507.7830465338193,1731785226.278201
26,-25.69685259554535,124.07118103001267,-832.7354738838039,-495.19828318292275,1731785226.2942655
27,269.168079610914,-21.52873409492895,-943.5393598210067,-293.14270827686414,1731785226.2942655
28,-11.010265469551086,-11.66848786175251,-982.0752889644355,-16.829549800604582,1731785226.294622
29,-138.24540186207741,-251.28387802280486,-1232.603707196191,-170.83862997591496,1731785226.294622
30,225.19059603195637,-101.54202369693667,-1018.8684247285128,-309.70298528065905,1731785226.3082232
31,118.10604060068727,-569.2576520554721,-536.7934504901059,-325.97155008791015,1731785226.3082232
32,-187.8327353745699,-427.9287026799284,-433.5030235638842,-524.3358437377028,1731785226.3238876
33,95.45720646902919,-444.5918269325048,-396.8183448985219,-807.3247236348689,1731785226.3238876
34,215.42197734769434,-200.6905114222318,-148.0327200461179,-653.8803683528677,1731785226.324595
35,-136.67838378064334,-340.7609844626859,-362.287848607637,-518.4006225080229,1731785226.324595
36,-47.6164062358439,123.13994594104588,-836.6773284371011,-497.41604385664687,1731785226.3382483
37,261.8378756977618,-28.38023081375286,-942.3351120352745,-296.40390103822574,1731785226.3382483
38,-21.67272024322301,-2.00458637624979,-983.021483653225,-11.118722568266094,1731785226.3539271
39,-154.97397436387837,-255.94753326755017,-1236.3323874520138,-180.98871845565736,1731785226.3539271
40,213.60812586918473,-100.00492481514812,-1022.1258775899187,-310.43974557192996,1731785226.3546867
41,121.53178896009922,-563.1391757279634,-1508.6382431257516,-308.1901957485825,1731785226.3546867
42,-175.7491186177358,-416.1106188199483,-1406.5857230848633,-515.7060245899484,1731785226.3682668
43,98.14245463721454,-437.45235791709274,-1361.471309919376,-792.7559433574788,1731785226.3682668
44,234.46928782202303,-192.03264302480966,-1105.2769432547502,-626.6258474257775,1731785226.3840325
45,-124.84534032084048,-331.7553053693846,-1317.0973969451152,-491.8566825725138,1731785226.3840325
46,-42.492743296548724,130.56738725304604,-1800.4588967682794,-476.95318124908954,1731785226.3847053
47,269.3214155090973,-14.66975757619366,-1908.3194814403541,-274.7180911451578,1731785226.3847053
48,4.282185449264944,14.776344724930823,-1931.379704567138,18.72006922820583,1731785226.3984032
49,-131.86513253767043,-228.5864251917228,-2189.900289004203,-147.88499399786815,1731785226.3984032
50,235.34068451169878,-76.5931510925293,-1969.8969342107885,-275.11452054046094,1731785226.4139216
51,148.103778145276,-536.7242623409256,-2451.225798408035,-271.83275832934305,1731785226.4139216
52,-165.60277003794909,-398.04316213401034,-2356.7166565777734,-486.6152127846144,1731785226.4147565
53,113.2030317587778,-408.2960978625342,-2317.4925858424976,-765.0675940355286,1731785226.4147565
54,250.9734663264826,-162.95492086932063,-2067.6822284022346,-595.4593911450356,1731785226.428409
55,-126.90228529646993,-319.0134662203491,-2277.8047675127164,-466.4982909229584,1731785226.428409
56,-31.83402842283249,138.67923025693744,-1790.6304396847263,-465.5408765343018,1731785226.4440436
57,286.0911269104108,8.988849543500692,-1882.5440909457393,-249.37091919546947,1731785226.4440436
58,0.49366679415106773,27.693959171883762,-1921.1622978881933,32.2005386184901,1731785226.4448128
59,-122.81831454485655,-217.1423313273117,-2172.7341482075863,-140.17145033925772,1731785226.4448128
60,244.94848749786615,-70.29889946710318,-1962.3385964003392,-275.1089106905274,1731785226.4583263
61,137.10847227554768,-536.8514189394191,-1480.6750111570582,-274.9387452425435,1731785226.4583263
62,-169.3389300936833,-407.1348589262925,-1391.7644995604642,-504.9725117171183,1731785226.4738495
63,110.62998058926314,-432.40349297691137,-1356.4000055794604,-792.7110645580105,1731785226.4738495
64,252.48438590858132,-179.29080387577415,-1098.7096789325587,-618.1063553267159,1731785226.4746375
65,-125.3203076152131,-332.51450506038964,-1322.127562385518,-491.6023693755269,1731785226.4746375
66,-24.847895305603743,126.10942650586367,-1811.7496547345072,-489.1265556048602,1731785226.4882267
67,279.25458979140967,-18.798607127275318,-1910.888792709913,-279.89785258378834,1731785226.4882267
68,-10.658714873716235,14.783824524842203,-1948.0297391698696,11.363686015363783,1731785226.5039296
69,-145.01462078187615,-256.74039205815643,-2217.227737980429,-178.1033856398426,1731785226.5039296
70,233.80732552986592,-81.29420533683151,-1994.0192889249884,-299.1695570554584,1731785226.5046337
71,131.6182991405949,-532.7749279877171,-2480.681250459049,-293.18010727642104,1731785226.5046337
72,-179.5301574729383,-407.3143741241656,-2395.521858518012,-522.8922423548065,1731785226.518232
73,104.59004216082394,-421.9130736012012,-2347.5987804858014,-796.2920187655836,1731785226.518232
74,241.7807922353968,-168.43761420436203,-2088.3638751572,-611.0996527597308,1731785226.5339873
75,-141.07276622857898,-334.3807151382789,-2322.975279177539,-503.3400453864597,1731785226.5339873
76,-40.865886815823615,120.20038457587361,-2803.7375485314988,-498.2238622470759,1731785226.5347297
77,271.954305077903,-8.917791444342583,-2893.3362017199397,-276.8591838697903,1731785226.5347297
78,-2.01954597607255,30.19595224224031,-2921.1386179905385,15.744978813454509,1731785226.548247
79,-146.16650996822864,-237.09843749087304,-3186.402242047712,-165.5653710383922,1731785226.548247
80,226.76509391330183,-86.17477477900684,-2969.480564817786,-290.1470484123565,1731785226.563866
81,131.29292784444988,-528.4142046393827,-3450.7757699154317,-277.0929276170209,1731785226.563866
82,-177.25629829987884,-397.4597377409227,-3366.469075164292,-502.99784454051405,1731785226.5646937
83,104.88549425732344,-426.9469789415598,-3323.3704680749215,-786.4766513318755,1731785226.5646937
84,238.11943017877638,-171.03684467356652,-3058.753846710082,-599.0216458528303,1731785226.578272
85,-151.09195820987225,-328.28467821050435,-3283.203942550812,-486.0523578412831,1731785226.578272
86,-43.19958438817412,119.30280858650804,-2796.4821426174603,-490.1793374423869,1731785226.5939624
87,281.59576716367155,1.2659561350010335,-2878.462619596161,-257.68097689701244,1731785226.5939624
88,-8.500792599283159,25.509857597760856,-2917.705389831215,27.458345474675298,1731785226.5948043
89,-151.2901729075238,-248.8230238519609,-3187.404535235837,-165.83838373515755,1731785226.5948043
90,239.4470946630463,-89.19661394320428,-2960.837656020187,-282.0838241078891,1731785226.6081612
91,137.07855307590216,-529.4164978275076,-3441.773830722086,-270.5256632948294,1731785226.6081612
92,-183.70388582348824,-409.4311574990861,-3366.929082858842,-513.4882639162242,1731785226.623815
93,115.166479235515,-419.044570335187,-3317.4726458447985,-785.9194062384777,1731785226.623815
94,249.66450134199113,-154.24469387251884,-3051.2104684994556,-596.3289178847335,1731785226.6245844
95,-118.95499789062887,-311.31675211153924,-3276.184150333982,-477.6787218404934,1731785226.6245844
96,-37.686971853487194,130.44397055450827,-2801.8937778533436,-494.5774597902782,1731785226.6381905
97,295.508194998838,10.540908025112003,-2871.648521876894,-255.75492841983214,1731785226.6381905
98,7.016052316874266,32.372574016451836,-2910.7529158135876,32.18183911871165,1731785226.6538274
99,-144.90616368316114,-239.25635976530612,-3185.6617418564856,-166.78831832390279,1731785226.6538274
100,244.81385109946132,-77.93951507657766,-2950.2013805462047,-274.9219156927429,1731785226.6545925
101,141.9516427181661,-525.1567517779768,-3436.638948082924,-264.934512861073,1731785226.6545925
102,-172.90305475145578,-398.18901823228225,-3357.9234037655406,-503.37183453608304,1731785226.6681533
103,119.92737187910825,-426.9768981412053,-3312.5397178032435,-775.4402065626346,1731785226.6681533
104,268.7230315161869,-161.93766808137298,-3038.640664748382,-584.8810841203667,1731785226.6838737
105,-115.94063852634281,-316.3057786524296,-3264.302488174755,-463.2127888118848,1731785226.6838737
106,-29.31333585269749,111.2732433816418,-2789.166898304131,-485.2052705013193,1731785226.6846163
107,296.630164985545,-5.256429387722164,-2863.5852975724265,-244.03782185865566,1731785226.6846163
108,11.769465160556138,18.639661379158497,-2905.6068134745583,37.638353154063225,1731785226.6981478
109,-138.60443225782365,-257.29015735164285,-3194.0839965566993,-173.28078464698046,1731785226.6981478
110,245.19906079489738,-95.02337807416916,-2958.2608649507165,-284.6082565779798,1731785226.714088
111,154.46160806994885,-531.2640084056184,-3438.7519915578887,-262.6494339881465,1731785226.714088
112,-179.55259687267244,-423.72505512973294,-3371.1402102089487,-516.5213227802888,1731785226.7146013
113,115.07672163657844,-443.11830634996295,-3330.1022879951634,-803.885885625612,1731785226.7146013
114,275.3089953381568,-161.36546338815242,-3041.6587640126236,-593.5426924177445,1731785226.7281616
115,-116.15381282381713,-325.1095031481236,-3280.331699384842,-477.17757524643093,1731785226.7281616
116,-28.071689067408442,109.69874550029635,-2809.0295069688,-504.9332427675836,1731785226.7438676
117,302.64018421433866,-4.601946895476431,-2879.7828042805195,-255.65021122107282,1731785226.7438676
118,14.46967292856425,22.256144636310637,-2915.5212882570922,30.917752933688462,1731785226.744591
119,-149.1808693325147,-260.6747668115422,-3204.159287037328,-182.73525173496455,1731785226.744591
120,250.99590572621673,-88.67676784936339,-2969.7573174145073,-296.06357014225796,1731785226.758221
121,147.5502729518339,-530.2542354175821,-3447.035869959742,-270.18533239886165,1731785226.758221
122,-176.53823750838637,-412.9204841577448,-3376.9669743399136,-527.0042623560876,1731785226.7739656
123,122.99408984277397,-432.0295029813424,-3330.128467294853,-804.6301257167943,1731785226.7739656
124,257.795043845661,-169.94105398654938,-3054.823211856652,-595.7006146921776,1731785226.7747211
125,-138.3613387607038,-328.46419340837747,-3290.6500833625905,-490.4168210895732,1731785226.7747211
126,-29.33577525243163,120.94088476710021,-2805.74961470766,-513.6135505647399,1731785226.7881663
127,290.997875652276,10.410011526662856,-2868.791238310747,-246.0947668342851,1731785226.7881663
128,5.845463630743325,42.496483196504414,-2902.461557611823,48.67105802334845,1731785226.8038347
129,-150.142023621127,-241.9677872331813,-3192.266405178234,-173.66225444246083,1731785226.8038347
130,240.87573644611984,-82.0010464284569,-2958.4441200485453,-278.46360095078126,1731785226.8045857
131,153.85948417708278,-512.3588141296059,-3425.5015260148793,-240.28109235316515,1731785226.8045857
132,-181.1607538536191,-401.6970443907194,-3359.3595253485255,-497.14864100981504,1731785226.8182192
133,114.44093864411116,-415.9778523715213,-3311.668321113568,-775.2270322651602,1731785226.8182192
134,265.4580988548696,-139.5132279470563,-3024.791815212462,-561.6189063959755,1731785226.833852
135,-124.86029992066324,-294.83127310685813,-3254.993877185043,-445.5043625216931,1731785226.833852
136,-26.886140781454742,136.19219678640366,-2787.899072219152,-483.6868711193092,1731785226.8345861
137,311.174635913223,24.72260865708813,-2847.9899147571996,-219.9379065441899,1731785226.8345861
138,10.602616374380887,44.59456707164645,-2896.2682832852006,58.42471710778773,1731785226.8481643
139,-140.590319134295,-239.91084225755185,-3180.8297911137342,-165.26991894189268,1731785226.8481643
140,256.1270484654233,-79.60003065690398,-2947.964920372702,-281.7771523115225,1731785226.863953
141,171.05180427338928,-507.6801992850378,-3412.0528457742184,-232.17672914918512,1731785226.863953
142,-170.3823621813208,-400.2796223075129,-3353.091453022789,-493.25166525598615,1731785226.8646045
143,124.60972662363201,-429.14978001546115,-3314.233892483171,-788.7542504048906,1731785226.8646045
144,286.33422040753067,-143.94126949459314,-3025.554754803423,-559.079514326062,1731785226.8782015
145,-105.88030764553696,-300.20176944322884,-3257.9783173496835,-449.244262477383,1731785226.8782015
146,-16.89312809985131,116.40064622089267,-2788.6171330106445,-490.71788303600624,1731785226.8939772
147,330.47999948449433,13.787141186650842,-2844.2500148015097,-216.51963798468933,1731785226.8939772
148,37.89266635105014,51.99208918400109,-2879.5284910835326,74.28563281986862,1731785226.894717
149,-124.34419372677803,-245.6702881893143,-3184.042365175672,-161.27196588926017,1731785226.894717
150,264.85223506204784,-91.86316261161119,-2953.877702202648,-273.4483951102011,1731785226.9081888
151,170.29634448233992,-519.303808347322,-3423.721333635971,-235.28084611240774,1731785226.9081888
152,-159.83210440631956,-404.8722194531001,-3358.9256969536655,-501.2026925617829,1731785226.9238856
153,132.44107713084668,-423.4987911824137,-3318.867628528271,-792.2660164632834,1731785226.9238856
154,289.6253323685378,-146.5105807641521,-3027.226490083616,-564.386432363186,1731785226.9247134
155,-105.88404754549265,-300.1344512440264,-3263.0084827900864,-455.04858720861375,1731785226.9247134
156,-21.231412048451602,123.51767583657056,-2803.9918617284857,-502.7341815936379,1731785226.9381223
157,315.08657126687467,16.535967654082924,-2863.832130969502,-239.37042671395466,1731785226.9381223
158,14.626748726703227,43.4651172850281,-2896.4777176827192,58.21528271026909,1731785226.9538972
159,-148.8442783365026,-237.75665988307446,-3192.7301527727395,-178.44932638574392,1731785226.9538972
160,249.12595574837178,-89.19661394320428,-2964.427959977649,-294.8892415561713,1731785226.9546344
161,159.31973811239004,-495.5704032285139,-3419.6747618839145,-242.82796422298998,1731785226.9546344
162,-183.26257762871683,-398.78740222519264,-3374.4986403691582,-516.8653935762122,1731785226.9681816
163,119.22801058739424,-436.2107111318037,-3333.8870667503215,-811.1525112395175,1731785226.9681816
164,270.44712539575994,-157.9284953288734,-3041.7560014114715,-583.7591141336598,1731785226.9839263
165,-129.93534416053444,-313.9907805798575,-3272.78458127426,-468.3626310508698,1731785226.9839263
166,-53.278614768758416,105.83168894611299,-2810.5179871511646,-517.6302031171508,1731785226.984591
167,297.703516272828,-3.1695652124471962,-2869.5915769012645,-248.6603382038884,1731785226.984591
168,15.449526716955006,40.97808381449431,-2890.448998954147,60.941669777967036,1731785226.99814
169,-146.2936665667221,-252.4507268089801,-3194.558963851072,-176.45969960931689,1731785226.99814
170,249.44384724460542,-93.40026149339974,-2954.663081193343,-281.0329122203402,1731785227.013988
171,158.00703322794288,-506.7639237958938,-3411.839671476744,-226.79875301290303,1731785227.013988
172,-184.44812591467053,-404.3224541596137,-3356.4798023826443,-497.88914120104164,1731785227.014684
173,116.4978836197406,-430.3203687015921,-3318.5796562316827,-796.2377902162261,1731785227.014684
174,278.70856439787894,-141.398137524724,-3017.446651699487,-555.8781599639915,1731785227.0282512
175,-121.93569815531373,-306.15943007264286,-3260.988936814014,-453.4441701276228,1731785227.0282512
176,-33.621700601652265,112.44009216781706,-2798.6737239914946,-509.65673641161993,1731785227.0439577
177,299.42013035248965,10.219276628922671,-2853.8615576876327,-234.4300188724883,1731785227.0439577
178,5.363016536459327,48.63365902379155,-2884.2781640272588,70.74020766187459,1731785227.0445857
179,-150.890003612265,-249.0773370489478,-3193.9456202583387,-179.9789454676211,1731785227.0445857
180,252.69382030609995,-91.93796061072499,-2953.3915152084082,-285.64794876566157,1731785227.0581548
181,146.15155036840588,-503.2820769371465,-3413.0065202629194,-219.2478950023651,1731785227.0581548
182,-170.7526122769341,-411.8172136708163,-3358.024381064344,-503.9702185289934,1731785227.0738547
183,128.63011907599866,-434.6137738507241,-3315.5652968673967,-793.5039233486168,1731785227.0738547
184,277.3846398135647,-143.32044610194862,-3015.142873326782,-552.7927425005473,1731785227.0745783
185,-120.4285184731707,-302.9692954104394,-3252.8995332098566,-439.08669419772923,1731785227.0745783
186,-32.395013416185975,117.76944960467517,-2798.07907989854,-493.5863863020204,1731785227.0882633
187,307.7301880540326,14.69967677583918,-2849.119364543818,-217.47331247339025,1731785227.0882633
188,13.564617139287293,53.91065786127001,-2883.2347319396213,81.87388982996345,1731785227.1039655
189,-155.4452017582953,-238.10073067899793,-3188.986512917094,-159.45811441075057,1731785227.1039655
190,265.9816848486662,-73.15618303325027,-2940.234547164291,-270.50509384507313,1731785227.1046064
191,175.75659841764718,-481.40366219636053,-3391.737709214911,-208.7312963269651,1731785227.1046064
192,-170.7152132773772,-392.7699031964876,-3345.907105207909,-484.77331205643713,1731785227.1182232
193,118.38653309736401,-426.9357592416927,-3313.186720495578,-788.2643235106952,1731785227.1182232
194,277.9044859074056,-131.9511502366513,-3010.6662130798213,-545.3615612885915,1731785227.1339068
195,-127.73254308663309,-299.82777944765985,-3255.450144979637,-445.97932981606573,1731785227.1339068
196,-33.92089259810746,121.32235456258059,-2802.5108613460325,-507.65588993532583,1731785227.1346085
197,305.64706377871335,8.517622149083763,-2854.134570384398,-230.56296231830493,1731785227.1346085
198,-47.1713581411168,-224.59595193900168,-242.2669792296365,-515.7116344398819,1731785227.1488843
199,-223.6235779505223,-529.375358927995,-557.4844469949603,-772.0107183032669,1731785227.1496248
200,174.76552492938936,-377.85705212317407,-319.5632315138355,-885.8401833046228,1731785227.1496248
201,98.92035382799804,-782.0654393341392,-772.0238079531118,-817.8057932606898,1731785227.1632185
202,-257.0096648549661,-694.9388600164093,-736.0590600292198,-1116.8257543179207,1731785227.1632185
203,30.835475134663284,-736.80517007038,-709.8461012397893,-1415.260421032086,1731785227.179082
204,200.18936482816935,-440.18622478470206,-397.18298514420167,-1170.0987592367455,1731785227.179082
205,-207.7626622384414,-595.3023153468966,-641.8285407456569,-1070.3799367682077,1731785227.1796722
206,-109.83712179865688,-184.54910321347415,-180.8447323073633,-1128.7205061269924,1731785227.1796722
207,232.82747174147516,-278.65433584852144,-229.39798348210752,-841.5373284295201,1731785227.193499
208,-54.79327425081283,-236.4439549986273,-259.14888762962073,-536.2810841961764,1731785227.193499
209,-224.4762751404196,-536.8476790394634,-568.05340426974,-788.5896948068403,1731785227.209142
210,183.40095392707735,-376.5967058381066,-332.2714115632698,-893.9408066086471,1731785227.209142
211,91.1937205195427,-780.6592369507998,-774.1892100274563,-821.9533423115499,1731785227.2097995
212,-256.4860788611695,-695.2268323129974,-748.0491792871617,-1124.1372587312944,1731785227.2097995
213,41.7971219047904,-730.4286406459287,-711.5103567200713,-1420.9787280643359,1731785227.2235885
214,201.77508240938187,-434.8419077480212,-403.55577466869727,-1175.1289246771485,1731785227.2235885
215,-192.24955722223967,-598.2717959117144,-644.5923268129118,-1074.729440416675,1731785227.2391212
216,-124.57232762407511,-192.7544437162578,-200.5240858742036,-1148.8598673883826,1731785227.2391212
217,239.97442055679858,-291.347556298133,-240.21751405391842,-854.866331871599,1731785227.2399814
218,-70.26524036750197,-243.69936091266572,-270.8996532903984,-546.68174597295,1731785227.2399814
219,-229.9664482753724,-548.5311265010387,-584.8866939703003,-807.2817147853784,1731785227.253506
220,164.8959289463237,-392.05745225492865,-343.07598253525794,-913.0479554822668,1731785227.253506
221,110.18493249453604,-788.3297717599198,-779.7579210614786,-826.1682095616125,1731785227.2692516
222,-249.97865293826908,-705.2834232938476,-743.26958714379,-1127.061860496644,1731785227.2692516
223,32.95599840953946,-744.4457856798545,-707.5610223668627,-1429.2289473665878,1731785227.2699156
224,196.97305086627603,-447.34439329989254,-402.8040547776036,-1171.0000751260668,1731785227.2699156
225,-210.34693310782313,-605.6281791245565,-643.4890563259833,-1070.3350579687394,1731785227.2836769
226,-113.128233759664,-192.4963906193152,-197.99217360420153,-1147.528463004157,1731785227.2836769
227,242.29315852932632,-282.35309690469876,-231.48858755733818,-845.4642233829945,1731785227.2990272
228,-58.86228540260345,-239.65652906056494,-254.9340203795582,-535.9070942006074,1731785227.2990272
229,-232.19168874900788,-544.125524353236,-580.9635389167815,-799.3643465791829,1731785227.2999082
230,180.20707936491817,-388.8074791934341,-339.61657507624477,-905.4896176718175,1731785227.2999082
231,93.0449709976092,-796.0489252684638,-782.7573208259419,-829.6762357200496,1731785227.3134823
232,-270.67151939310133,-711.3607607218437,-752.3238849365152,-1137.4774818732403,1731785227.3134823
233,29.552689449861646,-741.2182520180941,-716.7312570582144,-1434.7789589008316,1731785227.3289769
234,187.21191198192537,-444.3262940356508,-405.1452321498655,-1180.6677165115252,1731785227.3289769
235,-206.80898774974048,-594.5842545554042,-644.5212687137537,-1066.6662161122076,1731785227.3299649
236,-123.85426683258265,-193.58096160646528,-208.10860298434272,-1153.4823837336153,1731785227.3299649
237,230.23198117222637,-292.57798338355497,-240.87199654616416,-852.2932807020843,1731785227.3433218
238,-71.09175825770944,-246.83339707553387,-274.6881719455123,-545.3092026892118,1731785227.3433218
239,-241.0402920441702,-558.1950279865414,-587.7701568361372,-819.5149275404401,1731785227.359022
240,170.92464767489582,-393.7703264346346,-344.44104601908475,-916.0099562471732,1731785227.359022
241,93.13846849650145,-789.8519110418856,-785.45752859395,-821.167963320855,1731785227.3598244
242,-272.51155017130077,-706.3605144810863,-761.9466475225054,-1137.5261005726643,1731785227.3598244
243,35.07278178445995,-742.388840704225,-718.870479832869,-1436.379636081867,1731785227.3735049
244,202.6165598994121,-434.70727134961635,-397.62803323892877,-1166.2017834829167,1731785227.3735049
245,-208.6228392282501,-600.5269555849954,-645.8751124977134,-1063.2890864522196,1731785227.3891003
246,-122.12643305305392,-192.59736791811883,-196.67572881979868,-1146.5934880152345,1731785227.3891003
247,220.0295340931043,-284.0809306842275,-236.15972260199487,-846.2496023736894,1731785227.3896933
248,-60.70231618080288,-237.20689458958805,-266.51649054232985,-542.665093420539,1731785227.3896933
249,-230.54987266846,-556.2166209099814,-590.6872788015753,-808.1979902745225,1731785227.4035459
250,163.0745976679027,-390.1388835776597,-347.5302033824846,-908.6872321339324,1731785227.4035459
251,87.51365896314383,-787.4845543699339,-783.3893639184535,-826.2991060600616,1731785227.4189646
252,-259.6500342236832,-704.7411378002726,-750.2669399608858,-1125.588339914102,1731785227.4189646
253,30.790596335195005,-741.5473632141948,-714.1320265890099,-1424.800905819051,1731785227.419631
254,202.2051709042862,-438.08066110964864,-399.10903362138197,-1159.9524106569588,1731785227.419631
255,-215.09286615159363,-601.6115265721455,-643.937844320666,-1061.583692072425,1731785227.4332628
256,-127.90831838455051,-201.56938791181892,-206.0815772083588,-1152.1883783489466,1731785227.4332628
257,226.38362411782146,-290.2031469116919,-241.91168873384595,-848.968509641476,1731785227.449138
258,-66.6637167101726,-231.69054215494543,-256.5683566601947,-526.7106802095659,1731785227.449138
259,-232.90226974058896,-548.587225000374,-584.2359513780102,-808.770194967743,1731785227.4498453
260,175.76781811751425,-390.78962616994977,-345.6901726042852,-913.6351197753102,1731785227.4498453
261,92.21471320744604,-786.4897409817204,-772.8391061434522,-814.3276863018982,1731785227.4634826
262,-264.39970716740936,-705.0141504970379,-755.9852469931357,-1133.875958215911,1731785227.4634826
263,40.005709826014936,-740.350595228374,-717.3483405509032,-1428.6455229735002,1731785227.4791813
264,202.07427440583706,-431.9098261827603,-397.7177908378653,-1162.6376588251442,1731785227.4791813
265,-198.65974574629217,-585.9787447573617,-638.72816368239,-1054.698536254,1731785227.4796224
266,-113.66677935328335,-191.11636753566563,-196.86272381758317,-1143.4706715522334,1731785227.4796224
267,232.31884534750134,-277.65578256035224,-223.3243859540671,-832.3072553388774,1731785227.493497
268,-60.75467478018254,-234.12521702609956,-254.32441668678075,-530.4505801652558,1731785227.493497
269,-231.4773678574711,-547.7943662097678,-584.4940044749528,-811.3694254369475,1731785227.5092022
270,184.6463406123221,-390.4530351739377,-338.8349359855056,-907.7111182454973,1731785227.5092022
271,100.19191981293261,-782.4880480291322,-777.2634077910334,-820.2105489321984,1731785227.5098307
272,-257.35747555084527,-699.6997526600026,-755.499059998896,-1136.8641382805072,1731785227.5098307
273,39.661639030091465,-745.4480788679793,-722.5692408890463,-1435.6129565909505,1731785227.5236957
274,203.11022669356316,-432.396013177,-402.7329966784455,-1177.4476626496762,1731785227.5236957
275,-197.99404355417937,-586.1059013558552,-637.3369208988734,-1064.5531726372428,1731785227.5395231
276,-123.73459003400058,-197.33582116197795,-206.19751410698518,-1155.0194826154038,1731785227.5395231
277,240.57280454970896,-288.4566136323847,-236.78802579455078,-841.0586212351918,1731785227.5397625
278,-58.74634850397706,-236.3317579999566,-258.36724853888154,-533.0685101342387,1731785227.5397625
279,-215.98296234104782,-555.0572519237176,-583.2224384900182,-809.2115031625144,1731785227.553356
280,189.8672409504652,-386.27930682338774,-332.32003026269376,-903.1260008998215,1731785227.553356
281,111.00023068487644,-772.2556817503646,-762.5955201648176,-799.110033382196,1731785227.5691464
282,-259.0105113312602,-702.8824075222947,-750.5436925576068,-1130.4950886559673,1731785227.5691464
283,45.88483255635947,-743.9857779853046,-716.0505952662788,-1429.0494321687147,1731785227.5697424
284,208.9519504243508,-434.12010705657303,-396.4200455532409,-1163.748409111984,1731785227.5697424
285,-200.11082692909986,-591.1846854956821,-642.2212302410044,-1062.4663084619679,1731785227.5834703
286,-125.69803751073778,-204.7296033743769,-207.8580296873115,-1163.2397827180102,1731785227.5834703
287,243.7479796120897,-286.6016232543625,-235.04897231515497,-844.0318416999653,1731785227.5992868
288,-62.130957963876426,-239.26757946517318,-261.25071140471846,-530.8694489602931,1731785227.5992868
289,-242.57365102600306,-566.5125654879957,-602.2398297647014,-825.3117724717595,1731785227.5999193
290,177.05808360222727,-398.3816230800003,-355.29797559045255,-924.5444079460576,1731785227.5999193
291,78.91936886496842,-799.9010222228244,-795.1924881786108,-832.5110798864625,1731785227.6134825
292,-265.88070754986256,-722.0269553954713,-767.2086867601611,-1155.4776203599758,1731785227.6134825
293,21.111735249869525,-765.9950892245397,-743.6996756386943,-1458.280490222387,1731785227.6292243
294,204.32943407911807,-448.3915652874857,-418.94172308640555,-1180.091771918349,1731785227.6292243
295,-193.54730250686407,-595.1003607492894,-645.3365669040941,-1065.7611603229307,1731785227.6299367
296,-126.15804520528764,-211.30808739643544,-213.7895110170357,-1162.4170047277585,1731785227.6299367
297,233.42211583442986,-291.0109653021209,-235.40052291098982,-850.2325958264992,1731785227.6435237
298,-53.671304264105856,-230.2581604719162,-255.6820003706962,-530.8021307610907,1731785227.6435237
299,-229.97018817532808,-556.7215074039996,-589.7822230122983,-811.6087790341116,1731785227.6590538
300,182.88858763314784,-388.9720347914845,-345.2713038092479,-912.5094098886475,1731785227.6590538
301,89.67532113753259,-777.35316538997,-771.7395755564794,-808.3625458725728,1731785227.6597416
302,-274.40393954887986,-711.4280789210461,-753.9283020175062,-1139.4858081494458,1731785227.6597416
303,43.56235468387604,-749.999537114054,-725.8079942506738,-1441.1891474248841,1731785227.6733582
304,213.2902343729511,-429.235797714442,-398.3535738303326,-1160.4984360504895,1731785227.6733582
305,-201.8349208086729,-595.5641083437949,-640.4372979621403,-1065.9556351206265,1731785227.6890588
306,-123.44661773741245,-210.44791040662676,-208.73316627694294,-1164.1149193076417,1731785227.6890588
307,232.80877224169672,-294.21605956414714,-239.15912236645818,-847.581006757915,1731785227.6897397
308,-58.77626770362258,-234.45058832224458,-257.28267755173147,-530.8769287602045,1731785227.6897397
309,-237.412589087151,-560.5025462592021,-595.1228001490235,-822.0917186099105,1731785227.7033007
310,172.40938795730472,-394.42854882683605,-348.3492414727807,-923.6094329571351,1731785227.7033007
311,99.73939191829413,-780.8312723487616,-772.6221919460222,-805.4678633068688,1731785227.7189243
312,-265.26362405717373,-715.699044670444,-755.4691407992505,-1141.7447077226825,1731785227.7189243
313,41.08280101325363,-748.8663474274799,-721.5706876008771,-1444.375542187132,1731785227.7197747
314,210.4292109068483,-430.1221540039405,-395.1372598684393,-1158.419051675126,1731785227.7197747
315,-204.4304113779217,-596.6337197311223,-636.424385309685,-1061.643530471716,1731785227.733359
316,-112.87392056267709,-205.70197736285627,-204.17796813091263,-1158.5723875733092,1731785227.733359
317,233.9606614280492,-288.9615001264028,-229.1062712855637,-842.0833538230509,1731785227.7490077
318,-58.64911110512912,-236.7805459946394,-256.70299305859953,-527.0846702051349,1731785227.7490077
319,-241.70225433632731,-564.676274609752,-597.6883715186268,-822.0094408108853,1731785227.7498004
320,177.48069229722023,-398.35170388035476,-349.7180448565632,-917.640552627854,1731785227.7498004
321,103.99913796782494,-773.17943703942,-770.127678675577,-802.9396909368224,1731785227.7633097
322,-245.1130430959165,-691.7113263546489,-741.1004451694898,-1122.9292710456066,1731785227.7633097
323,47.59770673606545,-744.7973362756893,-718.3917726385407,-1431.772079336457,1731785227.7789087
324,215.16392425075173,-426.8796607423574,-386.7486642678268,-1155.644045908004,1731785227.7789087
325,-205.75059606228024,-592.7517035771161,-636.7871556053869,-1060.9628686797805,1731785227.779596
326,-121.12039996497333,-209.20252372138202,-217.65656757121906,-1167.910917762667,1731785227.779596
327,233.82228512968868,-282.61862980155274,-234.68620201945305,-842.2778286207467,1731785227.7932873
328,-66.36078481376171,-235.31824511196464,-262.95610578451306,-530.5665170638822,1731785227.7932873
329,-240.5204459503293,-563.3112111259252,-607.1091795070097,-822.0917186099105,1731785227.8089032
330,170.13926868420094,-410.8691490320489,-359.5091029405594,-921.6048465808854,1731785227.8089032
331,93.58351659122854,-784.4739349056035,-777.1325112925842,-811.459183035884,1731785227.8096023
332,-274.4562981482595,-727.5769669297151,-772.6577209956013,-1156.8576434436254,1731785227.8096023
333,37.268103058449924,-755.2391369519755,-743.4229230419733,-1450.6361347129568,1731785227.823223
334,212.18322398606688,-434.651172850281,-400.4778370051645,-1162.3309870287776,1731785227.823223
335,-214.96570955310017,-600.773788982071,-653.3436927092262,-1074.7967586158775,1731785227.8389604
336,-130.93763734865934,-222.7372216610238,-235.40987266087905,-1192.1828684750944,1731785227.8389604
337,238.7477333713323,-285.9284412623383,-245.90964178647846,-852.2895408021286,1731785227.8395948
338,-60.79581367969513,-248.0114655615762,-279.29572869092226,-542.5229772222228,1731785227.8395948
339,-259.91556712053716,-590.9640313982964,-626.0181136829779,-853.4096408388577,1731785227.8532732
340,177.05434370227158,-410.409141337499,-366.1025465624407,-941.7554275421426,1731785227.8532732
341,92.81683710031211,-786.8113723779097,-784.1934424089268,-827.2939194482751,1731785227.8689587
342,-279.250849891454,-722.7263166871853,-781.513804090675,-1163.424907765817,1731785227.8689587
343,32.18931891862303,-767.3713724082336,-747.503153893631,-1470.7530565746129,1731785227.8697069
344,201.81622130889446,-440.26102278381586,-412.56145376199856,-1176.4154502619058,1731785227.8697069
345,-215.89320474211127,-603.8442468456924,-658.0634464533068,-1080.3916489495896,1731785227.8833072
346,-136.86163887847215,-220.20530939102173,-231.4605383076705,-1186.2102482458577,1731785227.8833072
347,227.24754100758582,-295.10989565355703,-246.6763212773949,-854.817713172175,1731785227.8990276
348,-61.62607146985829,-238.5233393739909,-264.343608668074,-536.9056474887766,1731785227.8990276
349,-244.8961288984865,-575.1853934852406,-611.6007993537933,-837.2644927301444,1731785227.8997097
350,173.35558264609426,-393.4112960388884,-350.11073435191065,-920.5801139930263,1731785227.8997097
351,95.08695637341589,-774.1405913280323,-767.2180365100503,-801.5895870528184,1731785227.9131606
352,-277.9792839065194,-716.3871862622909,-764.7141734897159,-1147.8070855508558,1731785227.9131606
353,30.831735234707594,-752.5389291839674,-727.1468784348108,-1448.680167036131,1731785227.9289503
354,207.26151564437896,-433.3160285660997,-389.22821793844923,-1147.973511098884,1731785227.9289503
355,-207.9085183367133,-585.7917497595772,-640.9795834557153,-1051.6018990906887,1731785227.929724
356,-126.1318659055978,-206.08344715833664,-217.87722166860476,-1166.474796179682,1731785227.929724
357,226.94460911117494,-279.5893108374439,-233.13414353784174,-830.9347120551392,1731785227.9432108
358,-64.33375903777778,-222.49412816390395,-248.43781415652484,-511.2686332925223,1731785227.9432108
359,-240.23247365374118,-557.9444546895102,-596.5215227324516,-820.5097409286536,1731785227.9753623
360,185.28212360478938,-388.23901440016925,-340.8021233621985,-909.4688712246716,1731785227.9753623
361,108.52815681416541,-766.9674632130191,-755.3513339506462,-790.2651699869893,1731785227.97609
362,-275.3164751380682,-708.2416841587983,-762.1990907695144,-1143.547339501325,1731785227.97609
363,21.77743744198233,-751.7086713938043,-740.6984059242532,-1456.133787647821,1731785227.9768744
364,204.34439367894083,-428.2746434258297,-399.2567596696317,-1160.6442921487615,1731785227.9768744
365,-204.20227748062462,-593.6754588661715,-647.4926192285493,-1065.5704254251905,1731785227.9774632
366,-132.71782972756773,-213.72032286785543,-228.04787959810346,-1181.9579819962382,1731785227.9774632
367,251.36989572178572,-277.19951476575807,-232.85926089109853,-845.5128420824185,1731785227.988228
368,-56.169557434506714,-232.19542864896357,-256.49542861105874,-522.4322346602567,1731785227.988228
369,-244.1518888073042,-567.8327501723543,-603.6666015977971,-833.4011760759167,1731785228.0032744
370,176.530757708475,-395.83475121017545,-350.2659402000718,-923.2092636618763,1731785228.0032744
371,100.88006140477955,-779.2492946675047,-770.7802912178449,-801.0473015592434,1731785228.0193477
372,-278.6150668989867,-717.6101335478015,-767.980976101011,-1146.8309716624208,1731785228.0193477
373,32.391273516230285,-757.079167730175,-740.2084790300578,-1453.250324781984,1731785228.033932
374,213.18925707414746,-432.40723287686706,-395.7150744115934,-1149.832241376862,1731785228.033932
375,-221.52549407538027,-592.029902885668,-645.5366515517235,-1056.3927109339274,1731785228.0347457
376,-131.36772584356368,-210.00286231189966,-218.4026776123792,-1173.8349192924798,1731785228.0347457
377,253.95790649112314,-274.3983296989463,-227.70567875215784,-829.2928959745914,1731785228.0489764
378,-59.24375519808382,-226.61923781502992,-240.5746744996868,-507.1584832412191,1731785228.0489764
379,-243.58716391399503,-562.8699029311538,-591.2875327444635,-817.1700102682225,1731785228.0497627
380,174.09234293736517,-393.75910673476756,-341.2153823073022,-911.4510182011873,1731785228.0497627
381,104.71345885936171,-769.151564787142,-757.7729191719554,-784.7637771521695,1731785228.0633526
382,-268.1657864227891,-711.8469477160834,-754.509856460616,-1137.6532571711577,1731785228.0633526
383,30.061315843835473,-750.3884867094457,-729.0411377623677,-1449.3982278276235,1731785228.0790632
384,208.79487462621182,-419.418560330756,-385.8529582284391,-1143.3809139532968,1731785228.0790632
385,-210.71344330348074,-589.6438467139378,-642.5821305867285,-1052.9781822743826,1731785228.079808
386,-135.38811829593033,-213.0284413760528,-223.144870756194,-1170.6335649304092,1731785228.079808
387,244.38750250451267,-275.42306228680536,-226.51639056624845,-823.4997909432277,1731785228.0933352
388,-57.56828001793474,-223.64975725021213,-257.9091107943095,-520.7904185797088,1731785228.0933352
389,-238.08951097913086,-562.0546047408134,-604.0069324937649,-828.778659730684,1731785228.1090598
390,172.4879258563742,-402.2187604345381,-358.3366443044506,-923.52715515811,1731785228.1090598
391,101.28771049994975,-784.4739349056035,-776.5883558490314,-806.9301641895436,1731785228.1098032
392,-279.142392792739,-731.3692254847847,-776.2872939025983,-1157.1904945396818,1731785228.1098032
393,16.754751801490784,-770.9803758654743,-751.2748429989442,-1467.8060154095292,1731785228.123221
394,204.41919167805463,-438.6528658028692,-408.153981664218,-1169.960382938385,1731785228.123221
395,-215.96052294131368,-603.1448855539784,-658.8806145936251,-1072.6762353410013,1731785228.13952
396,-136.36797208432108,-233.62033053208143,-244.88490919861943,-1195.4291016366333,1731785228.13952
397,231.1108576618135,-299.0517502068542,-255.37719852430746,-857.2000294439495,1731785228.139663
398,-73.73586752638221,-240.07165795564651,-271.5485259327106,-532.0362977464683,1731785228.139663
399,-260.34004576550797,-577.9940583519638,-615.4790756078437,-835.2954354034737,1731785228.1545532
400,148.98452458484098,-410.8953283317387,-372.49029568675905,-938.3240693327971,1731785228.1548555
401,83.69709105836228,-778.172203480266,-774.0134347295389,-804.6731345662847,1731785228.1548555
402,-273.53815270913765,-711.7197911175899,-759.8261242476292,-1144.0241767456755,1731785228.168288
403,34.218214644584805,-753.5973208714277,-734.536920747254,-1446.9766426063143,1731785228.168288
404,197.97347410442308,-427.8408150309697,-391.74891050858423,-1142.3917104150169,1731785228.1839323
405,-216.8674486805685,-597.179745124653,-640.5681944605894,-1050.560336953029,1731785228.1839323
406,-135.7490186416544,-213.35381267219782,-216.20174648845568,-1167.4826992177404,1731785228.1846623
407,245.11117314593866,-275.632496684324,-218.9973217053339,-816.4594292766415,1731785228.1846623
408,-59.02497105067596,-233.16406273748726,-247.1512885717675,-505.36894111242145,1731785228.198324
409,-240.56719469977543,-567.4550202768296,-595.0031233504415,-813.570356560871,1731785228.198324
410,174.28120788512751,-380.45254269242287,-340.2822772683576,-898.2435615076683,1731785228.2139432
411,102.74066163273528,-761.2379364809021,-750.2089715115726,-775.0232077175751,1731785228.2139432
412,-282.2184605062939,-705.4704182916321,-751.2449237992987,-1127.8191902376711,1731785228.2147064
413,33.21218155650422,-749.3787137214094,-721.8941889470443,-1438.0607211119495,1731785228.2147064
414,213.52023822022602,-411.0075253304094,-372.34817948844284,-1126.590633102227,1731785228.2283332
415,-204.95212742174044,-577.3994142590091,-628.1835157573223,-1035.604477030225,1731785228.2283332
416,-125.78966505965218,-205.2083105687052,-210.49278920609504,-1158.0768508291803,1731785228.2440114
417,243.1664251689799,-272.16560942539945,-223.22901850519702,-815.6067320867442,1731785228.2440114
418,-57.07648317376152,-219.67798349726945,-248.6939973034896,-503.28955673705786,1731785228.2447228
419,-245.6945975390263,-560.3641699608415,-595.2518266974948,-821.891633962281,1731785228.2447228
420,185.12691775662825,-389.5479793846607,-335.20162317855284,-897.3572052181698,1731785228.2585652
421,117.62172355642542,-750.9606914026663,-740.0457933819853,-766.8590061143041,1731785228.2585652
422,-280.0493185319938,-710.39212663332,-753.6889484203421,-1132.61000208091,1731785228.2742612
423,39.009026487823576,-750.9868707023561,-725.8229538504966,-1447.8891781955026,1731785228.2742612
424,221.37776802713051,-408.43447416089475,-371.3140971506946,-1129.9453233624808,1731785228.2748756
425,-195.5911578326486,-581.1542738145217,-628.7314111008309,-1036.786285416223,1731785228.2748756
426,-121.52991901012138,-211.55118089355528,-216.2690646876581,-1160.2235534037463,1731785228.2886128
427,251.37550557171926,-268.2200149721466,-213.40430132159963,-810.531687846873,1731785228.2886128
428,-47.850149983074516,-211.09117319900542,-231.5315964068286,-495.4956052294001,1731785228.3041337
429,-235.0882412646897,-545.5691257361323,-583.8600914324634,-807.6276555312797,1731785228.3041337
430,183.9189300709404,-382.1728966720402,-338.72086903685704,-896.3137731305324,1731785228.3047194
431,109.49492095271125,-753.9900103667751,-750.0724651631899,-766.9973824126646,1731785228.3047194
432,-280.77111922344193,-713.5261627961881,-762.1972208195366,-1136.095588839613,1731785228.318295
433,42.45721424696967,-746.9889176497236,-720.7067707111128,-1434.9603440486826,1731785228.318295
434,223.2402382050641,-408.95058035477996,-376.18344689300284,-1129.2272625709884,1731785228.3340456
435,-209.11089617246762,-587.5644623385742,-631.3194218701683,-1043.0244385423139,1731785228.3340456
436,-122.98100019292906,-211.93639058899134,-217.5331508726813,-1163.0995364696719,1731785228.3348749
437,255.2463020258583,-267.24390108371153,-210.1954671596177,-816.1003988808952,1731785228.3348749
438,-58.65098105510697,-223.20844905544072,-246.51363562932238,-504.63218082115054,1731785228.3484318
439,-252.6246321569197,-572.0850164219737,-607.3354434543289,-826.8806605031714,1731785228.3484318
440,182.93533638259396,-393.56837183702737,-340.94236961053684,-908.5694252853282,1731785228.3642375
441,115.17208908544853,-757.3820996265858,-752.0770515394397,-776.4406298007816,1731785228.3642375
442,-272.28528622398153,-706.1174209839664,-754.0816379156895,-1133.7618912672624,1731785228.3646135
443,30.209041892085224,-751.3833000976592,-723.478036578279,-1445.1403517280705,1731785228.3646135
444,226.78566336305812,-410.3717423379421,-370.21082666376606,-1125.1395519194193,1731785228.3788428
445,-201.58995736157522,-590.9191525988281,-633.892473039683,-1046.3342500030994,1731785228.3788428
446,-129.17053461959586,-215.26116164959967,-214.90774110378698,-1173.0027915523387,1731785228.3940072
447,259.27043437818065,-266.19672909611836,-213.92788731539622,-814.9746889942326,1731785228.3940072
448,-49.58172366255894,-217.74445522017777,-248.03577491128817,-507.2052319906652,1731785228.3948562
449,-242.803654873278,-567.462500076741,-598.7187139564194,-826.607647806406,1731785228.3948562
450,185.998314446304,-384.15878354851156,-341.82872590003535,-904.8295253296383,1731785228.4085176
451,106.66755658620968,-762.1280326703563,-757.4625074756332,-783.4940811172128,1731785228.4085176
452,-268.5192069686018,-714.8276479807682,-761.2659857305698,-1145.1087477328256,1731785228.424195
453,37.59908420452848,-752.5725882835686,-727.3076941329055,-1439.5566810942255,1731785228.424195
454,222.0509500191547,-416.77819096203893,-381.1575138340704,-1141.4305561264046,1731785228.4248428
455,-206.6762213013135,-587.0221768449992,-636.5365823083557,-1048.522091477178,1731785228.4248428
456,-133.3367831702344,-218.49617511127144,-230.6078411177732,-1180.3516949652694,1731785228.438824
457,241.10200039343908,-274.9667944922112,-225.37198117980734,-826.7965127541684,1731785228.438824
458,-61.10061552608386,-223.98634824622422,-253.40627124765888,-511.52481643948704,1731785228.4539938
459,-252.40771795948967,-579.2282253373414,-606.8081175605766,-829.8912799675018,1731785228.4539938
460,190.57221209211275,-394.35001092776656,-342.93947618687525,-908.7227611835115,1731785228.4548593
461,101.42047694837674,-758.4330115141347,-752.8923497297801,-777.5588598875329,1731785228.4548593
462,-279.3312577405013,-712.2059781118296,-768.2184597481973,-1143.0630224570632,1731785228.4687345
463,32.161269668955356,-754.1433462649584,-733.1157587640919,-1455.0024679112248,1731785228.4687345
464,216.57199658406898,-419.36246183142066,-382.2271252213977,-1137.1708100768737,1731785228.4844515
465,-218.3073101635091,-597.5686947200447,-637.329441098962,-1050.3359429556876,1731785228.4844515
466,-135.09079624945298,-222.4342897646129,-232.20851829880849,-1186.4888707925566,1731785228.4846983
467,248.9557903003879,-276.60861057275906,-226.21345866983756,-822.4096101061441,1731785228.4846983
468,-66.68428615992889,-227.3634779062122,-254.00839514052495,-511.93246553465724,1731785228.4984698
469,-250.23109618527815,-574.4074942944571,-605.3981752772816,-833.844354220666,1731785228.4984698
470,183.477621876169,-390.4717346737161,-342.64028419042006,-911.3070320528932,1731785228.5303519
471,106.6264176866971,-752.5464089838788,-751.9461550409906,-776.5154277998954,1731785228.5303519
472,-280.50184642663226,-713.5074632964097,-761.131349332165,-1142.8311486598104,1731785228.5310447
473,33.90406304830685,-757.6551123233512,-736.575166223105,-1447.993895394262,1731785228.5310447
474,220.24083844060078,-415.5328042767942,-378.10949537018314,-1131.078513049055,1731785228.5317576
475,-209.5222851675935,-587.3363284412771,-635.2687562233768,-1039.4752734843642,1731785228.5317576
476,-136.01829143846408,-226.8099727127701,-232.77324319211766,-1174.6745268325321,1731785228.5324836
477,245.3991454425268,-277.5510653615929,-226.19101927010342,-820.9435693235137,1731785228.5324836
478,-56.02557128621265,-221.7685875725001,-247.03348172316328,-507.95695188175887,1731785228.543464
479,-247.8824390131049,-570.3871018420905,-603.2028540032916,-830.3550275620073,1731785228.543464
480,184.52105396380648,-393.7740663345903,-348.1454169251956,-906.7106950073503,1731785228.5584097
481,108.70954196201637,-761.8699795734137,-753.4196756235324,-772.96252284199,1731785228.5584097
482,-276.6235701725818,-724.1362589704804,-766.4120880695991,-1133.8703483659774,1731785228.5741377
483,34.27805304387584,-763.7249699514359,-734.428463648539,-1443.1956037511118,1731785228.5741377
484,224.0480565954931,-403.8231775155291,-377.7168058748357,-1116.8893326171674,1731785228.5747218
485,-205.73376651247963,-587.6243007378653,-630.8706338754855,-1031.3335112808272,1731785228.5747218
486,-138.78207750571892,-215.94556334149092,-227.0848553595133,-1164.9507869477384,1731785228.5885966
487,253.3950515477918,-253.93733704136685,-207.9664867860265,-800.991203059908,1731785228.5885966
488,-39.480253882240504,-201.70402431022376,-233.203331687022,-478.53889883030206,1731785228.6041286
489,-242.88593267230317,-550.51701337751,-595.6071171932854,-805.3724958579987,1731785228.6041286
490,196.40271612303331,-369.5021156221628,-334.04599409224465,-887.8840386304073,1731785228.6049788
491,116.963501164224,-734.6809068955481,-740.0794524815865,-748.395120033063,1731785228.6049788
492,-283.75929928803816,-701.2293717418797,-753.4982135226019,-1123.6043229876086,1731785228.618755
493,34.85773753700778,-724.9534271107987,-710.6613994301297,-1422.1025680010207,1731785228.618755
494,228.45365874329582,-388.3362517990172,-363.03021874884143,-1103.8370817718096,1731785228.634261
495,-210.69661375368014,-562.9372211303562,-620.7990832948126,-1018.4420761335641,1731785228.634261
496,-130.0082722096704,-208.40592503082007,-221.26557102845982,-1163.7166199623607,1731785228.6348176
497,251.53632126981393,-262.1838164436631,-212.3758288337849,-797.3186213034205,1731785228.6348176
498,-53.73675251333043,-213.82130016665906,-232.70218509295955,-486.99855253007263,1731785228.6483374
499,-248.7276564030908,-561.4674404477701,-596.5832310817204,-819.7150121880695,1731785228.6483374
500,185.28399355476722,-382.09435877297074,-334.0310344924219,-899.6796830906533,1731785228.6639605
501,110.31021914305165,-751.5403758957982,-737.9215302071534,-761.4099718788639,1731785228.6639605
502,-274.76109999464825,-709.7301643411629,-762.3505567177199,-1132.0564968874678,1731785228.664714
503,26.162470140028745,-754.509856460616,-730.0116418008693,-1451.5430604522116,1731785228.664714
504,226.76322396332398,-403.4080486204475,-368.7597454809584,-1126.3101406055503,1731785228.6782713
505,-200.73352027172223,-579.7368517313153,-628.1816458073445,-1040.6159429708496,1731785228.6782713
506,-122.53969199815765,-205.27562876790762,-221.2767907283269,-1172.8718950538896,1731785228.6943135
507,259.2853939780034,-256.11769871553406,-212.21501313569024,-812.1323650279082,1731785228.6943135
508,-60.016044538933784,-222.1463174680248,-246.8053478258662,-502.95670564100146,1731785228.6947105
509,-249.51677529374138,-575.2040929850191,-608.0123653463088,-835.0336424065754,1731785228.6947105
510,187.02304703416303,-386.24190782383084,-350.93912219209597,-917.4105487805791,1731785228.7084565
511,110.57201213994995,-741.8091562110931,-752.2266475376673,-773.7516417326406,1731785228.7084565
512,-288.65108843008056,-708.6605529538356,-763.2406529071741,-1150.3034687712789,1731785228.724179
513,23.742754868697375,-763.6127729527652,-745.1918957210146,-1467.748046960216,1731785228.724179
514,215.0049785026349,-418.4125272426754,-393.11771389236674,-1143.9063698970713,1731785228.7251587
515,-212.0055787381716,-597.8903261162341,-646.8175672865473,-1059.4276397479698,1731785228.7251587
516,-141.99091166770086,-233.37723703496158,-243.8732662606053,-1199.1372124426998,1731785228.738582
517,250.8070407784544,-275.957867980469,-226.52387036615983,-830.6560895084403,1731785228.738582
518,-54.98587909853086,-214.6552978567779,-238.60374722303823,-500.9334197649732,1731785228.7544885
519,-259.76036127237603,-583.6562668848783,-620.2530579012819,-842.962230312638,1731785228.7544885
520,179.9508962179534,-401.5904572419822,-355.4120425391011,-929.8606757330708,1731785228.7546687
521,112.62147731566802,-754.569694859907,-748.5690253810026,-767.4910492068157,1731785228.7546687
522,-282.7906651995145,-726.5110954423435,-764.194327395875,-1142.6142344623804,1731785228.7687511
523,31.491827576886863,-757.3297410272062,-730.77458139183,-1449.415057377424,1731785228.7687511
524,226.67346636438742,-403.6399224177003,-362.5215923548676,-1117.6859313077293,1731785228.783992
525,-212.62640213081613,-572.0550972223282,-613.4053010824136,-1029.6991750001907,1731785228.783992
526,-127.51001903926954,-205.3616464668885,-208.05998428491876,-1163.858736160677,1731785228.7848256
527,261.3348591537215,-254.2514886376448,-194.94415514031425,-791.2973823747598,1731785228.7848256
528,-45.7445863080211,-203.99658298306167,-215.3079103990458,-474.9373751729727,1731785228.7987852
529,-250.34703308390453,-560.9849933534861,-584.009687430691,-808.4018148221076,1731785228.7987852
530,187.30353953083977,-381.9933814741671,-328.04345466336235,-897.3347658184357,1731785228.8143132
531,117.56936495704576,-740.9153201216832,-718.9153586323373,-742.8600680986419,1731785228.8143132
532,-274.69378179544583,-693.9664860279299,-733.2690946622752,-1115.7318335808814,1731785228.8148112
533,36.90720271272585,-747.1572131477296,-714.3227614867501,-1434.3507403559051,1731785228.8148112
534,233.69325858121738,-397.8954360857606,-347.45727533334866,-1105.5237766518258,1731785228.828575
535,-202.84282384673133,-566.8117574844509,-610.8472095127217,-1015.0387671738863,1731785228.828575
536,-129.92599441064522,-220.87475148309022,-217.98941866727546,-1172.456766158808,1731785228.844028
537,262.00430124579,-251.74575566733256,-201.82931095873937,-798.1413992936723,1731785228.844028
538,-60.27783753583208,-205.29806816764176,-227.25689075747505,-480.39388920832425,1731785228.8446372
539,-246.66323162754998,-562.1630618395284,-590.0907647586428,-818.8024765988812,1731785228.8446372
540,206.6350824018009,-366.56255425699055,-320.07372785778716,-894.2568281549029,1731785228.8585508
541,122.89498249394819,-734.4378133984283,-725.9089715494774,-747.0001373495907,1731785228.8585508
542,-286.149095359724,-709.0345429494046,-749.9789676642977,-1130.7288324031979,1731785228.8740633
543,44.19252782640979,-746.9926575496793,-723.2499026809819,-1445.1291320282035,1731785228.8740633
544,236.81233514426276,-396.54159230180085,-357.64850271260366,-1110.2659697956406,1731785228.8749921
545,-217.43965337378904,-576.5504569690675,-616.0232310513966,-1025.824638646096,1731785228.8749921
546,-137.20383972441778,-216.51776803471148,-215.54726399620995,-1173.2795441490598,1731785228.8886116
547,268.1040780735202,-245.41036514239386,-189.28194660739973,-793.3019687510096,1731785228.8886116
548,-40.35913037182763,-190.30480924528092,-205.524332114961,-467.45757526159286,1731785228.904173
549,-242.0220157825388,-564.5042392117903,-584.3313188268803,-819.6289944890887,1731785228.904173
550,198.29136560065672,-388.5531659964472,-323.0207690228708,-894.3503256537952,1731785228.904847
551,124.08801057981327,-735.9262935807928,-715.7850623694248,-736.9884251682088,1731785228.904847
552,-282.181061506737,-701.1732732425444,-735.6813301336952,-1120.4777666246518,1731785228.9185536
553,34.39772984245792,-745.0591292725876,-710.6539196302183,-1433.5952805648558,1731785228.9185536
554,238.727163921576,-396.50419330224395,-349.2599071119912,-1106.0585823454894,1731785228.9339843
555,-211.16410124814138,-578.6821999438107,-612.3020305954851,-1033.2371203582734,1731785228.9339843
556,-129.3799690171145,-218.49617511127144,-217.25265837600455,-1185.0190901099704,1731785228.934912
557,259.1470176796429,-261.2151823551394,-208.03754488518462,-814.2865474023856,1731785228.934912
558,-62.031850615050644,-214.44586345925927,-238.3494340260513,-500.47341207042336,1731785228.9484422
559,-258.6234316858463,-587.0707955444232,-617.8894411292858,-860.9773283991963,1731785228.9484422
560,177.49378194706514,-404.73197320476174,-360.49830647883937,-941.7423378922977,1731785228.9639015
561,106.34592519002035,-769.9481634777039,-761.1687483317219,-792.2454470135272,1731785228.9639015
562,-303.70044585177675,-746.98330779979,-799.1399525818415,-1197.325230914168,1731785228.964614
563,14.737075775396079,-796.4939733631909,-772.3099102997221,-1514.5379353058524,1731785228.964614
564,212.4132278333418,-441.19599777273834,-409.6106726969592,-1182.285223242361,1731785228.97827
565,-237.81836823234335,-626.6613764753565,-682.881422559265,-1107.4666546788067,1731785228.97827
566,-168.3572063553147,-275.29777563828975,-283.3404304930009,-1259.7123720250092,1731785228.9939384
567,242.64657907513902,-301.0600764830597,-254.61051903339103,-879.3421071316116,1731785228.9939384
568,-57.80202376516536,-234.24489382468164,-259.169457079377,-530.8526194104925,1731785228.9946108
569,-266.4024235936813,-600.1978443888947,-639.0572748784907,-872.2606065655127,1731785228.9946108
570,179.96585581777617,-398.5648781778291,-348.65404331916943,-927.1043694657274,1731785229.0082805
571,115.39648308278993,-748.3053624341264,-727.7452624277212,-749.5918880188838,1731785229.0082805
572,-286.1939741591923,-714.2778826872818,-760.0617379448377,-1140.7667238842696,1731785229.0238807
573,35.6655559274368,-754.7492100577801,-730.1313185994513,-1454.8154729134403,1731785229.0238807
574,229.76636362774298,-402.2598993340507,-358.8938893978484,-1113.5196827570908,1731785229.0246515
575,-208.94634057441726,-592.6432464784011,-629.176459195558,-1047.6357351876795,1731785229.0246515
576,-145.7869101227261,-234.73108081892133,-231.54655600665137,-1198.7033840478398,1731785229.0382116
577,255.1041858275421,-261.57047285092995,-211.84476304007694,-813.1196986162104,1731785229.0382116
578,-57.77958436543122,-215.82214664295316,-228.90992653789,-481.87862949073315,1731785229.0538836
579,-266.5856786915101,-584.142453879118,-623.6077481615357,-850.0156816290691,1731785229.0538836
580,172.86004590196535,-405.21816019900143,-361.97930686129257,-929.5166049371473,1731785229.0545776
581,107.87554427189752,-765.8417533263564,-759.7737656482495,-780.692896050401,1731785229.0545776
582,-299.11158860614523,-745.5958049162291,-786.6823458294384,-1188.2260543219745,1731785229.0682187
583,48.58691027434543,-751.989163890481,-726.2231231457554,-1453.7009827266447,1731785229.0682187
584,245.2832085439004,-396.2274407055229,-358.4114423035644,-1108.029509622138,1731785229.0838833
585,-209.14081537211314,-589.7373442128301,-621.1281944909133,-1031.901976074092,1731785229.0838833
586,-129.28273161826655,-231.8476179530844,-229.2726968335919,-1203.6250923895277,1731785229.0846064
587,271.97487452765927,-251.86917236587033,-199.6339896847494,-793.0775747536682,1731785229.0846064
588,-49.42090796446428,-213.92975726537406,-223.87228129757568,-479.866563314572,1731785229.0982034
589,-254.12433203915134,-588.3909802287817,-612.0664168982767,-845.3370667845011,1731785229.0982034
590,195.79311243025586,-394.80627872236073,-343.2985065826215,-919.003746161703,1731785229.1139069
591,126.96025374578312,-746.2558972584084,-733.609425558243,-750.5156433079392,1731785229.1139069
592,-288.32197723397985,-725.8042543507181,-766.7486790656112,-1152.4165122462437,1731785229.1146088
593,33.48893415322527,-768.4821226950735,-736.6088253227063,-1457.3586048833095,1731785229.1146088
594,233.93635207833722,-401.3436238449067,-358.2169675058685,-1102.2364045907743,1731785229.1282375
595,-200.1126968790777,-575.1517343856394,-613.5361975808628,-1017.1592904487625,1731785229.1282375
596,-129.4846862158738,-229.42416278179735,-224.26497079292312,-1185.482837704476,1731785229.1438992
597,260.9870484578423,-268.4892877689563,-209.6419619661756,-807.6257855813019,1731785229.1438992
598,-43.78861863119528,-202.56420130003244,-218.78227745788172,-478.23970683384687,1731785229.1446006
599,-263.5189607278444,-581.5993219092488,-610.506878616754,-840.9165050368756,1731785229.1446006
600,172.21865305956453,559.7732657678425,605.6637081741355,1001.8705794299021,1731785229.158936
601,97.51789134461433,207.6878642393276,202.91762184584513,1149.5797981298529,1731785229.1596825
602,-312.24424730055034,214.50009200861678,165.4662636895664,743.8642312367447,1731785229.1596825
603,14.690327025949955,177.88086159247905,194.71602124301717,438.3274945067242,1731785229.1732273
604,211.4389838948846,539.9779753023759,563.9750433680601,780.9397294474766,1731785229.1732273
605,-240.041738756001,350.540822846815,300.96283908421174,843.5699640554376,1731785229.1888912
606,-167.68215441331267,693.0146814892069,679.3546969010495,669.5580289671198,1731785229.1888912
607,231.95233515184373,663.0674325940199,702.9048469220288,1062.9992442056537,1731785229.189614
608,-95.2290725717321,698.6282713226974,657.0274941655807,1354.0588282071985,1731785229.189614
609,-309.6711961310357,308.2275947481394,254.9919888288714,967.0016221930273,1731785229.20322
610,128.25238918047398,495.906994224526,519.6273096934892,898.260391057469,1731785229.20322
611,67.06014610547572,153.24614058434963,142.76133105857298,1075.1370895118453,1731785229.2190628
612,-340.99659815989435,167.37735256692395,105.35485170176253,665.659183263313,1731785229.2190628
613,-20.98457865137607,132.08204673510045,134.1184222609736,360.9938432229683,1731785229.219632
614,176.10440911352634,496.7522116145119,515.13194994675,718.086970792152,1731785229.219632
615,-269.40743320807815,298.3168598655611,240.24930320354179,783.0097640729509,1731785229.233208
616,-208.36852603126317,640.3718497129157,618.9104338171892,603.1074865544215,1731785229.233208
617,199.53114243596792,627.3214688175358,661.1638235165738,1011.8897714111954,1731785229.2489753
618,-113.90239305049181,670.7660166528076,638.1671786890365,1323.563683968503,1731785229.2489753
619,-320.4458479033783,292.52749473415315,238.77952252095565,960.2062239735387,1731785229.2496667
620,130.4664099542424,487.70165372174233,511.1788756935857,894.8271628981456,1731785229.2496667
621,47.54908803664148,143.09605210460722,131.17138109588996,1065.6826224238612,1731785229.2631931
622,-346.9841779889539,150.14763347106054,93.09171974705532,654.177690399345,1731785229.2631931
623,-24.96009230427444,116.20991132315248,123.12685629120097,353.92169240675867,1731785229.2790377
624,165.69252763688564,475.9396683610976,507.3267787392251,709.0214532995597,1731785229.2790377
625,-285.53014191705734,284.19125773292035,235.02466296544299,783.2902565696277,1731785229.2797644
626,-201.5357288122177,654.1646007495001,638.4813302853145,636.8039851551875,1731785229.2797644
627,218.82528630737215,661.4013071637601,703.9707184094004,1070.0190364224836,1731785229.2931983
628,-98.58750273194164,712.4640312087722,681.3705029771663,1386.3940032240935,1731785229.2931983
629,-303.5901188030839,336.8359594591893,295.33054975094274,1031.1820453326218,1731785229.3253
630,150.05600592214614,550.1710726316087,585.9581753076054,989.7233843738213,1731785229.3253
631,95.24403217155486,211.2351593472995,220.2333586406894,1188.1867853724398,1731785229.326007
632,-313.23906068876386,223.9265098469332,181.2897804020904,769.4451469336636,1731785229.326007
633,5.609849933534861,191.72784117842093,226.50891076633707,481.29146519768983,1731785229.3267803
634,230.8902035644278,589.4961206656881,632.8490409520455,865.3791906470433,1731785229.3267803
635,-218.31292001344264,405.6463787439279,370.2407458634116,949.2221378036775,1731785229.3274438
636,-149.2930663311854,753.3373978245072,758.0496717686765,787.5630922690034,1731785229.3274438
637,278.77588259708136,755.9777671932243,813.5909260106273,1213.8181897187606,1731785229.3382583
638,-35.9067794745788,813.8471091575921,800.6209529642947,1552.243606659118,1731785229.3382583
639,-238.21666757762432,438.04700201004744,416.5519270147197,1183.3136957301758,1731785229.353234
640,220.08563259243965,637.6155434455723,696.1543275020085,1127.4003214426339,1731785229.353234
641,143.78793359640986,289.9619233645499,309.73290448030457,1296.3895708904602,1731785229.3690228
642,-277.82220810838044,294.518991460558,254.9919888288714,856.8241694984026,1731785229.3690228
643,45.664178458973765,230.7780065657571,258.15220429142937,516.6522192787379,1731785229.3696349
644,243.20943401847035,590.0552357090637,632.3291948582046,868.386070211418,1731785229.3696349
645,-210.1038396107033,393.029826243408,347.9659017273225,915.4321417040192,1731785229.3832493
646,-142.90531720686704,727.1150892851874,718.122499841731,725.3161974065006,1731785229.3832493
647,265.48053825460374,708.3464013575576,758.3675632649101,1134.7828839551657,1731785229.3988817
648,-59.89075789041817,765.2097102338448,738.9051238954999,1462.527146622073,1731785229.3988817
649,-266.44917234312743,383.97552845068276,348.13419722532853,1093.5037381942384,1731785229.3995628
650,187.41012667957693,586.02362355683,634.9620844270103,1047.0111718950793,1731785229.3995628
651,133.4358905190602,267.3018695330247,273.76254670647904,1255.796696771402,1731785229.413258
652,-278.7534431973472,283.61718308972195,241.03842209419236,859.0082710725255,1731785229.413258
653,53.04674097150564,256.83762945700437,283.7106805886142,555.2704262211919,1731785229.4289184
654,271.5092569831759,646.3108108425513,691.083023162093,942.8998369285837,1731785229.4289184
655,-184.3471486158669,456.8399992873892,419.394250981044,1013.8588287378661,1731785229.4296095
656,-124.96501711942255,796.2172207664698,793.1598525526933,825.2014454230666,1731785229.4296095
657,305.86771787609905,793.2870091511868,845.7989444290288,1243.3559195687994,1731785229.4432576
658,-10.86814927123487,843.0893869111314,826.4973207577132,1569.5107247545384,1731785229.4432576
659,-232.1804690491408,445.1378523260355,419.57002627896145,1175.1981128263287,1731785229.458897
660,217.56494002230465,630.6929886275902,684.1155895446427,1108.2146346699446,1731785229.458897
661,146.35350496601313,296.63390488550067,311.92448585433885,1293.4387898254208,1731785229.4595785
662,-274.07856825273484,292.30310073681176,260.4410230643116,863.0361433248036,1731785229.4595785
663,59.008141500875354,260.8374524596147,292.51066518435255,557.9668940892443,1731785229.473272
664,269.2316579101607,645.2355896052904,689.7403990780003,943.3448850233108,1731785229.473272
665,-174.46259303297848,455.6825002511032,425.8193991049193,1015.3061700207181,1731785229.4889004
666,-114.83736803941429,794.7493100338615,804.102799823042,828.6271937824786,1731785229.4889004
667,299.60712535027415,783.0303335227072,848.8507027928717,1250.4804289843887,1731785229.4895904
668,-15.356029218062758,846.0756970257498,840.2077939952724,1587.1929717450403,1731785229.4895904
669,-231.53720625676215,455.5628234525211,433.2692798166536,1198.1685783541761,1731785229.5032773
670,229.28204658348113,642.7036773352884,698.4431462748908,1130.6203753044829,1731785229.5032773
671,168.27305860631168,315.85512070776895,335.4671560754068,1320.235173007939,1731785229.5189
672,-250.3002843344584,324.2979448577389,283.61718308972195,896.3810913297348,1731785229.5189
673,60.90053087845445,270.01890685083345,297.7988837216981,561.7404531445354,1731785229.5195975
674,271.9842242775485,644.1098797186278,691.6589677552693,943.4570820219815,1731785229.5195975
675,-170.92090777494013,458.7080793152563,424.57401241967455,1017.3668548963033,1731785229.5332384
676,-110.56640229001641,798.0666012945585,793.5301026483066,818.2153123058379,1731785229.5332384
677,313.0333661912009,792.2192677138373,842.8519032639451,1242.3872854802758,1731785229.548901
678,-9.899515182711184,841.0118724857457,822.5891253040172,1570.8383892388083,1731785229.548901
679,-227.8160058008507,442.9705803017132,420.15719057200477,1179.9328261702321,1731785229.549606
680,232.0720119504258,644.6185061126016,693.4578596339561,1122.5309717003256,1731785229.549606
681,166.84067692328244,317.422138789203,332.280761313159,1321.6301556914113,1731785229.5632586
682,-266.81568253878504,308.55483599426225,268.8931969641708,879.7647158266045,1731785229.5632586
683,67.85300489608198,264.81483606249094,295.3492492507212,560.3080714615062,1731785229.578905
684,281.77902226150036,646.9615534348413,693.5775364325382,940.5810989560559,1731785229.578905
685,-169.72039988916367,462.004801126197,429.151649965439,1012.1459545581602,1731785229.5796285
686,-112.81034226343036,783.0004143230617,786.783323128242,802.3581364937127,1731785229.5796285
687,302.87205801159143,773.4430999862961,831.1235770029016,1228.7403905419633,1731785229.593258
688,-16.343362806364894,824.6479402296245,814.8550121956505,1554.8203977285884,1731785229.593258
689,-246.27989188209176,419.17546683363616,401.3305341950618,1150.3651771205477,1731785229.6088939
690,211.12109239865094,618.1680636759847,672.3162051844411,1081.773541983217,1731785229.6088939
691,156.47367424611002,288.4996224818751,304.3100495445542,1284.8183204275556,1731785229.6096108
692,-267.1709730345756,289.55240431940183,256.12143861548975,856.2220456055366,1731785229.6096108
693,50.21189680509269,235.31824511196464,266.71283529000357,515.866840288043,1731785229.639637
694,260.8206229098141,619.0432002656162,659.4397296370007,899.1467473469675,1731785229.639637
695,-195.56310858298093,437.26910281926394,388.29324294952676,966.0367280044593,1731785229.6402943
696,-132.45229683071375,755.7141042463481,744.9188830242492,745.1114878719673,1731785229.6402943
697,287.3514731954783,751.2206144495867,793.6310799471103,1183.4389823786914,1731785229.6410527
698,-37.87396685127169,791.4039695234969,780.4441927033477,1503.206038440112,1731785229.6410527
699,-269.9347591018304,388.9608150916174,353.86746385740116,1089.4534265422262,1731785229.6532705
700,189.69894545245916,577.2946970602497,615.9372133524157,1008.5612604506314,1731785229.6532705
701,137.57595977000892,258.6701804352924,262.20251594344154,1224.2543805451132,1731785229.6689284
702,-298.9115039585158,249.54482454340905,193.11908396193758,780.2646775054745,1731785229.6689284
703,24.339268911629915,195.3667638353072,213.73715241765603,446.67121130786836,1731785229.6696205
704,243.13837591931224,584.9484023195691,619.250764713157,844.8882787898183,1731785229.6696205
705,-220.05571339279413,393.26356999063864,348.75876051792875,913.7641463237815,1731785229.6832
706,-164.3349439529702,717.1127268536948,708.5932347546332,702.6411839751527,1731785229.6832
707,270.77997649181634,718.1898180409335,764.6206759908237,1145.6285938266665,1731785229.6989155
708,-53.776021462865174,778.1385443806648,761.2697256305255,1486.189493641723,1731785229.6989155
709,-273.55498225893825,384.68984934221953,349.5217001088895,1081.3602830381133,1731785229.6995976
710,193.1321736117825,576.6738736676052,623.9032002580352,1024.1753427656367,1731785229.6995976
711,132.2877412326634,263.1954593816772,270.65468984330073,1240.8595363483764,1731785229.7132163
712,-296.9106574822217,261.59478220064193,217.12924167746678,809.7051699566655,1731785229.7132163
713,34.11162749584764,211.29125784663484,238.05024202959612,480.2293336102739,1731785229.7289388
714,267.43650593142956,614.1345815737732,655.4791755839251,895.2983902925625,1731785229.7289388
715,-198.9477180428803,432.046332531143,391.45345841208473,975.6370511907153,1731785229.7296264
716,-134.26988820917904,750.517513257917,750.7306875553913,763.7025305517018,1731785229.7296264
717,289.7225697673857,755.4728806992061,808.8599525666796,1201.9365275595337,1731785229.743346
718,-31.243124229833484,817.0484635196626,800.1272861701436,1544.3000591532327,1731785229.743346
719,-256.2242858642712,409.4105880493298,383.32291590841487,1132.6530109304003,1731785229.7589564
720,212.01492848806083,603.8704261453822,648.4406838673167,1047.5871164882556,1731785229.7589564
721,149.34916483052075,278.63002649880946,290.61827580677345,1266.3469545464031,1731785229.7596252
722,-297.2173292785883,257.17422045301646,206.6762213013135,795.8114416212775,1731785229.7596252
723,31.04116963222623,194.8843167410232,210.46100005647168,447.59870649687946,1731785229.773242
724,257.32381645124406,595.2069478980266,623.5142506626435,850.0605604285374,1731785229.773242
725,-212.70307007990777,390.2379909264855,342.34857199387625,902.914696552325,1731785229.7889314
726,-157.71906093135476,702.672973124776,690.4472401696257,676.779775781557,1731785229.7889314
727,265.0841088593006,706.798082775902,751.314111948479,1123.346269890666,1731785229.789634
728,-59.733682092279196,758.5115494132042,749.3170053721406,1468.1968349548988,1731785229.789634
729,-276.40478602517396,367.9463172405958,333.09231960354373,1064.2838998404332,1731785229.803268
730,181.0822159545496,564.1526886159554,608.7304261378013,1002.270748725161,1731785229.803268
731,134.16891091037542,255.33044977486134,257.0377141046338,1230.5074932710268,1731785229.8189042
732,-307.6366905551404,244.12196960765868,190.7405075901188,777.5420303377323,1731785229.8189042
733,21.31742974743247,185.59440525108948,206.12645600782707,440.06654798612,1731785229.819597
734,243.744239712134,584.7240083222277,620.6943660960533,852.1736039035022,1731785229.819597
735,-222.64372416213155,396.8837931477465,343.86697137588635,914.5270859147422,1731785229.833225
736,-163.4859866630286,701.9025537339039,689.0522574861534,681.1479789298028,1731785229.833225
737,259.51539782527834,703.2152586183511,754.2798526133411,1122.7104868981987,1731785229.848961
738,-51.82379368599504,766.039968024008,744.9039234244265,1463.5481393099762,1731785229.848961
739,-290.9118579532951,346.8233622908592,305.3572215321474,1026.5744885872118,1731785229.849612
740,176.54571730829775,544.7351280460134,579.3946508853696,965.4140346618369,1731785229.849612
741,116.17999212350696,224.83904543612152,228.15446674684063,1187.2331108837388,1731785229.8633015
742,-329.2645319988951,200.64189272280782,147.29034990491346,716.6265398594551,1731785229.8633015
743,-4.637475945055485,146.77424371102825,159.80405515665188,381.3351590819657,1731785229.8789191
744,216.89923783019185,554.3784600817598,581.0888255652972,799.5569514269009,1731785229.8789191
745,-239.9669407568872,355.16146924206987,304.6802996401675,856.5212376019917,1731785229.8796184
746,-184.5304037136957,669.1634695217945,651.7804145277478,628.2657935563475,1731785229.8796184
747,251.51949172001332,684.2053471435793,723.1601450820453,1086.9757428215817,1731785229.8933675
748,-71.30493255518377,740.2570977294818,708.4997372557409,1428.0490089305677,1731785229.8933675
749,-315.5540587613359,315.3334046639502,272.90984951658174,987.2157814535312,1731785229.9089744
750,163.32517096493393,519.9358514398336,560.9569441038184,935.9473629109561,1731785229.9089744
751,111.04510948434472,212.81526707857847,212.91063452744856,1164.5506176524796,1731785229.909634
752,-347.21605178620666,173.98014593869448,108.72076166188344,1648.3758650701493,1731785229.909634
753,-19.795290465466678,115.0000536874868,123.57938418583944,1310.3431376251392,1731785229.9232693
754,199.62837983481586,512.7608533748426,535.0282177110203,1715.2022674283944,1731785229.9232693
755,-262.9785451842472,303.10206185886636,248.26764870854095,1756.9563804836944,1731785229.9389443
756,-209.30724092014134,614.5160513692535,585.3373519149609,1529.703229626175,1731785229.9389443
757,224.00130784604698,627.6019613142125,662.0913187055849,2001.21111653978,1731785229.9396343
758,-108.24018451757729,677.7371901702136,637.3107415991835,2307.0283457664773,1731785229.9396343
759,-348.6521733691916,258.91327393241227,203.8226776351221,1880.5077154198661,1731785229.9532704
760,137.16831067483872,485.1660015517846,522.0432850648649,1870.2024210919626,1731785229.9532704
761,95.68908026628196,192.90029981452972,197.32273151213303,2136.8778573824093,1731785229.968924
762,-342.10734844673425,179.42544027417898,124.0393918803893,1678.6914941109717,1731785229.968924
763,0.7965986905619502,155.66772580565885,178.48111553536728,1397.9689935869537,1731785229.9696467
764,237.77161948289722,591.3511110437103,636.689918206539,1860.9536485015415,1731785229.9696467
765,-221.50679457560182,405.5902802445926,369.1935738758184,1932.4811051040888,1731785229.9837062
766,-150.08592512179166,745.2928730198182,745.741661014501,1744.4445451819338,1731785229.9837062
767,307.7451476538554,797.1353662055917,868.6796523579396,1296.0436301445588,1731785229.9989412
768,-4.398122347891331,878.1135499961674,882.7360663414001,1654.9674387420528,1731785229.9989412
769,-235.94654830452055,450.75518205948174,435.45151144079864,1199.8777126339264,1731785229.9995897
770,227.0343667101115,649.1269555091858,711.4262089710683,1144.1363737443462,1731785229.9995897
771,180.40155416261405,339.9681256720796,365.22367007285357,1367.3616523495875,1731785230.0132396
772,-261.17217350564897,303.8406921001151,276.18413192778826,884.4395907712169,1731785230.0132396
773,64.78628693241626,264.00888762203977,300.9572292342782,573.154627809301,1731785230.028895
774,298.7020695609972,688.9587599872611,743.4210530919954,1005.3449464887381,1731785230.028895
775,-163.18305476661772,489.8464863463305,460.8491720398888,1058.352418510709,1731785230.029611
776,-108.07188901957124,807.5248082824983,819.3746812921017,840.4116185428575,1731785230.029611
777,342.09986864682287,835.9929267452098,902.2620840100572,1322.9933492252603,1731785230.0432427
778,18.643401279114187,892.9609528202564,883.6822610301897,1642.4350339905359,1731785230.0432427
779,-225.04100003372878,460.2881870465353,436.4986834283918,1195.5917872847058,1731785230.0589333
780,240.27735245320946,657.3098566122353,713.4008761476725,1135.478505346924,1731785230.0589333
781,187.48866457864642,348.10240807570517,368.18941073771566,1362.133272211533,1731785230.0596151
782,-265.84704845026135,308.94939543958753,262.70179258752614,1841.7324326792732,1731785230.0596151
783,64.22530193906277,255.48565562302247,272.07772177644074,1509.6012673643418,1731785230.073245
784,294.060853715986,666.8484714492224,700.6552970986813,1931.211409069132,1731785230.073245
785,-177.55175039637834,455.1327349576168,414.84466268494725,1970.3176729558036,1731785230.0889192
786,-129.3556596674025,751.2430538493209,743.0919418958947,1725.2850377089344,1731785230.0889192
787,309.2523273359984,778.8098564227112,833.8181749209762,2213.2410046276636,1731785230.08958
788,-16.05165060982108,840.5163357416168,825.5155970193446,2550.705267279409,1731785230.08958
789,-258.40464753843844,410.68963383417577,387.8051860053092,2109.2773957094178,1731785230.1032631
790,206.44621745403856,610.1048393715173,669.4121728688478,2064.7557566869073,1731785230.1032631
791,163.4074487639591,319.1069637192413,344.77015721518546,2316.609969452955,1731785230.118898
792,-269.601908005774,291.78325464297086,262.6756132878363,1838.3141641197726,1731785230.118898
793,54.927910649217665,231.36330090882257,267.81423582695425,1503.0901015414856,1731785230.1196015
794,291.74585564341396,663.5872786878608,715.4017226239666,1949.6191966510378,1731785230.1196015
795,-173.13866844866425,467.77359680784866,436.04241563379765,1998.437980722636,1731785230.133244
796,-127.78490168601274,754.5117264105938,755.8524805447087,1741.9238526117988,1731785230.133244
797,303.8519117999822,770.9747660155408,835.6395061993971,2218.895733360667,1731785230.1489224
798,-14.230319331400096,829.7042849697173,820.8407220747322,2543.6667755628005,1731785230.1489224
799,-255.06865677796304,397.0315191959962,375.3550590528175,2092.604921706952,1731785230.1495972
800,206.49109625350684,596.6112803313881,644.4371209647506,2025.8720168475993,1731785230.1495972
801,162.47247377503663,295.67649049684405,312.9623080920428,314.9594146683812,1731785230.1639917
802,-287.0971599984914,264.02571717184037,220.12303159199655,-174.73560572974384,1731785230.1645856
803,30.12115424312651,201.16734866658226,221.85460527148098,-508.5646856245585,1731785230.1645856
804,255.32296997494996,617.6800067317672,657.1752202138305,-69.39197372784838,1731785230.1782196
805,-205.8777526607737,418.8108265879564,381.3575984816998,-26.029703691601753,1731785230.1782196
806,-145.6616234742105,730.1761973989196,723.6070631267503,-259.7042627730407,1731785230.1938949
807,303.178729807958,770.1632077251561,825.3585212212056,-735.791657182388,1731785230.1938949
808,-21.29499034769833,828.4962972840294,811.7303257826716,-401.0201224987395,1731785230.1946185
809,-271.1203073877841,385.9913345267996,362.347687006928,-858.6118416772224,1731785230.1946185
810,198.095020852983,589.6288871141151,636.6843083566055,-912.7936422852799,1731785230.2082403
811,162.06482467986643,300.41494374070317,314.76867977064103,-662.1997758042999,1731785230.2082403
812,-286.45015730615705,256.7927506575361,214.8460327545181,-180.57358956057578,1731785230.2239587
813,26.736544783227146,192.221507972572,216.56638673413545,-523.8309572436847,1731785230.2239587
814,258.55050363671035,609.0483176340349,649.2466323077679,-88.28968820394948,1731785230.224645
815,-207.62428594008088,412.56145376199856,372.49403558671474,-38.434951844625175,1731785230.224645
816,-166.14131563156843,697.7961435825564,697.0238542417064,-298.83857590937987,1731785230.2546628
817,277.537975711748,729.2150431103073,779.5223073642701,185.4448092528619,1731785230.2546628
818,-45.690357758663595,806.973173039034,781.2781903934665,528.2907879408449,1731785230.2552953
819,-289.01198877580464,360.2795223314315,327.51986866956577,73.19358203280717,1731785230.2552953
820,183.76372422277927,556.7514266036451,605.3906954773702,14.033974583726376,1731785230.2560613
821,137.28050767350942,277.2500034151599,287.5926967426203,280.56355477590114,1731785230.2560613
822,-312.621977196075,244.709133900702,190.57595199206844,762.6796679138206,1731785230.2682672
823,9.701300485059619,176.37181196035817,194.82073844177648,423.229518385604,1731785230.2682672
824,241.3020850410685,595.0648316997103,627.8413149113767,859.6833230145276,1731785230.283951
825,-213.78016126714647,408.70561690768227,366.76263890461996,923.9254545033909,1731785230.283951
826,-165.0081259449944,699.6324344608001,686.0790370213799,672.6733656302094,1731785230.2846649
827,268.58465521782637,719.7418765225448,762.2009607194923,1145.6248539267108,1731785230.2846649
828,-41.89809920359403,794.8371976828203,771.575019958429,1498.7817367925309,1731785230.2982485
829,-292.15724463853985,352.22003792691976,315.8158517582342,1040.4457775228657,1731785230.2982485
830,180.87278155703098,547.2819999158382,590.7770364005119,979.6630534930155,1731785230.313932
831,136.16975738666952,269.9422389017418,277.586594411172,1249.5398441455327,1731785230.313932
832,-312.65189639572054,231.68680225498974,181.8638550452888,1736.7010823236778,1731785230.3146129
833,9.69008078519255,170.48894933005795,181.30474000191316,1393.899982435163,1731785230.3146129
834,241.8593301344663,594.0064400122501,622.7438312717713,1846.0464072781615,1731785230.3282473
835,-214.8385529546067,408.00999551592395,362.7085873526521,1917.1400354858488,1731785230.3282473
836,-173.06013054959476,686.0229385220446,682.6271093622781,1648.5684699178673,1731785230.3439353
837,275.18183873966336,722.9843697841279,768.1062627495266,2126.6099620540626,1731785230.3439353
838,-40.813528216443956,793.236520501785,772.9176440425217,2488.1367410207167,1731785230.3446255
839,-296.5516270864755,347.6050013815984,315.13892986625433,2021.812355445698,1731785230.3446255
840,172.32711015827954,553.14616304636,591.8167285881937,1962.5854297974147,1731785230.358278
841,130.46267005428672,270.4920041952282,283.30116154346615,2237.971093084663,1731785230.358278
842,-317.39408953953534,233.336098135449,179.54511707276106,2721.4148707068525,1731785230.3739157
843,-0.46000769454985857,162.14897242886946,173.40981119545177,2369.4659755267203,1731785230.3739157
844,244.7839318998158,590.4572749543004,632.288055958692,2817.771523115225,1731785230.3746152
845,-220.9944282816723,401.74566309014335,362.57395095424727,2889.957202109974,1731785230.3746152
846,-179.05893007852137,680.3083713897504,670.7791063026525,2614.130230627954,1731785230.3882585
847,264.7549976631999,712.9913571025245,762.9489407106303,2128.4537327322178,1731785230.3882585
848,-49.47887641377747,791.3703104238957,771.3207067614421,2483.9181338706985,1731785230.4039228
849,-287.89749858900905,356.4648243766278,321.2274869941175,2021.5019437493756,1731785230.4039228
850,178.80835678149015,538.1977829234675,590.0103569095954,1959.7431058310904,1731785230.4045968
851,128.469303377904,265.6488337526098,270.33492839708924,2233.318657539785,1731785230.4045968
852,-320.6702419007197,219.27781420201063,178.54656378459185,2710.737456333358,1731785230.4182456
853,13.68429393786937,165.48496318934485,183.69266612362117,2373.1086380835623,1731785230.4182456
854,254.0140049904585,599.8481637430377,629.9375288365409,2832.330953642726,1731785230.4339392
855,-207.75892233848572,409.74530909536406,368.5147820338607,2903.3871828508563,1731785230.4339392
856,-172.84695625212044,694.0936426264234,687.2851547570899,2632.6726546082646,1731785230.4346359
857,274.9462250424549,726.638252040837,778.643430874683,2149.509369482752,1731785230.4346359
858,-51.48720268998295,797.3915493525565,779.7672708113678,2510.890292351134,1731785230.4482453
859,-286.4351977063343,372.75582858361304,338.8031468358822,2048.489061829634,1731785230.4482453
860,197.721030857414,578.4765054462478,624.7708570477553,2006.7386886742897,1731785230.463909
861,153.08532488625497,305.23941468354315,322.4261249299161,2302.450708220713,1731785230.463909
862,-295.5942126978189,276.63291992247105,238.82440132042393,1824.6635292815045,1731785230.4646208
863,32.58574831392616,222.7503113108687,251.11371257482097,1488.6316483127885,1731785230.4646208
864,279.6098802872002,656.0177211775444,702.0334502323531,1945.6212435984053,1731785230.4783125
865,-190.0878950478509,453.6031158757396,433.3702571154572,2003.9431134574115,1731785230.4783125
866,-132.7327893273905,747.3647775952704,754.4780673109926,1730.8088699434884,1731785230.4939666
867,301.64911072608083,777.1418610424735,839.6281095021404,1245.5063620433211,1731785230.4939666
868,-5.62854943331331,867.2304411251098,867.1294638263062,1639.5179120250978,1731785230.494629
869,-243.80407811142504,440.27224248368293,431.82006858382374,1188.0932878735475,1731785230.494629
870,-732.1321650757454,662.9907646449283,728.1772208726034,1162.024315232411,1731785230.5082731
871,-773.9779056799598,402.8545434270054,448.5823001852259,1476.2600592593662,1731785230.5082731
872,-1215.8807445443235,359.85691363643855,347.88549387827516,1940.6266072075814,1731785230.5239482
873,-900.539860080462,276.67966867191717,310.3163288733922,1544.4982738508843,1731785230.5239482
874,-670.3564976076595,692.7584983422421,743.6847160388716,1991.4163185558282,1731785230.5246143
875,-1143.307985904161,497.30384685797617,465.37632093625143,2043.122305393219,1731785230.5246143
876,-1104.641160262283,763.3491100058891,761.2697256305255,1740.3343951306306,1731785230.53832
877,-675.7008146443404,769.0823766379617,826.8638309533708,2205.144121223595,1731785230.53832
878,-987.3691173517145,854.5783595750108,841.948717424646,2570.545436544344,1731785230.5539484
879,-1243.2343728202395,406.6767211817205,376.9258170342073,2089.362428445369,1731785230.5539484
880,-773.5852161846124,582.9905646927655,630.5957512287423,2004.4872689009644,1731785230.5545914
881,-814.5932191987522,317.711981035769,329.32811029814184,2297.8730706749484,1731785230.5545914
882,-1266.1936186482199,283.63027273956686,243.68066141288728,1807.9798355791718,1731785230.568255
883,-951.5371358762495,193.22754106065258,219.90798734454438,1428.8194283214398,1731785230.568255
884,-724.5813070652075,622.6017150734551,664.6905491747893,1890.9476461461745,1731785230.5839026
885,-1185.7371509014629,442.47691350756213,403.619352967944,1972.4531558305025,1731785230.5839026
886,-1143.1546500059776,713.4251854973845,714.2105644880794,1678.652225161437,1731785230.584608
887,-682.3241774658673,753.1504028267227,804.6824843161739,1192.9645075658336,1731785230.584608
888,-999.2956583104096,842.2030306216329,829.562168771401,1586.1532795573585,1731785230.598251
889,-1257.748924548272,388.35495129879564,366.70467045530677,1100.7479244084097,1731785230.598251
890,-782.1608067830093,579.9051472293213,636.5945507576689,1029.1307102069259,1731785230.61392
891,-810.4082711483352,323.47516686748713,345.84724840242416,1343.246777435299,1731785230.61392
892,-1261.2195517071523,295.08932620380074,267.9077333258465,867.4641848723404,1731785230.6145563
893,-937.082422547508,212.74233902944252,253.57082684570923,492.3353897668421,1731785230.6145563
894,-690.0395910744555,665.5058473651297,710.3958665332757,973.0509103713557,1731785230.6282468
895,-1155.7207138570957,485.6877175956033,460.4321731948294,1057.2977667232044,1731785230.6282468
896,-1106.354034441989,753.5730115217157,759.8485636473633,759.225870304741,1731785230.6438792
897,-664.7765668737702,778.6602604244836,833.0384057802148,1232.4989899974316,1731785230.6438792
898,-984.8820838811807,864.7022687550634,857.4281633412465,1614.0491933268495,1731785230.644606
899,-1241.9441073355265,411.531111324206,388.57560539618134,2100.4549717139453,1731785230.644606
900,-791.5853546713479,579.269364236854,618.9272633669898,1998.3388733738102,1731785230.658219
901,-831.9687943928875,294.78265440743417,310.94650201592594,2280.0711468858644,1731785230.658219
902,-1286.370378909167,260.9851785078645,222.01916086953133,2768.2683373517357,1731785230.6738904
903,-961.6161662568338,176.9963752529584,206.1862944071181,2383.389623061754,1731785230.6738904
904,-723.261122380849,617.4967516339384,652.1918035228737,2850.3684911290184,1731785230.6745715
905,-1193.658259007614,427.0086872908287,397.41859884141013,2943.6285063740797,1731785230.6745715
906,-1146.6028377651237,686.0154587221332,683.1058165566064,2622.911515723914,1731785230.6882203
907,-714.6518726828508,717.5054163490422,763.8128576003946,3099.2251740805805,1731785230.6882203
908,-1016.1813066103496,817.2017994178459,805.2453392595053,3501.681418162305,1731785230.7038865
909,-1259.6936725252308,370.79238110687584,341.51644425373524,3025.1358860083856,1731785230.7038865
910,-812.5923727224581,527.456790250726,579.2319652372971,2913.7784948777407,1731785230.704599
911,-853.1628074417822,261.7181988991797,274.11970715224743,3219.1207568100654,1731785230.704599
912,-1288.9434300786816,245.69272758904845,202.94193119555712,2734.504520551767,1731785230.7182045
913,-989.5532189258374,127.5212387391366,154.78136951616034,2322.133801687509,1731785230.7182045
914,-740.8648314722814,568.077713619452,608.1694411444478,2788.708760559559,1731785230.7339008
915,-1207.9671162380837,378.9360132603906,346.8027928411029,2869.1820578561164,1731785230.7339008
916,-1185.6099943029694,624.9578520455398,631.05762887327,2531.1081915115938,1731785230.734628
917,-760.7423997367732,628.222784706857,692.1152355498634,2978.1982716144994,1731785230.734628
918,-1085.4928724891506,706.6129577280954,707.8583444133401,3342.7992483447306,1731785230.748221
919,-1346.104061001446,237.8912962814793,224.6258711386472,3817.439301471226,1731785230.748221
920,-899.1635768967681,378.86682511121035,430.17825250327587,3669.565527173225,1731785230.763882
921,-947.8084556204267,113.79767585173249,122.30220835097134,3967.2970926957205,1731785230.763882
922,-1399.3490166706033,72.68495563883334,38.73040394112468,3490.306512447074,1731785230.7645724
923,-1098.7321183322929,-22.482408583629876,-6.524255472701043,3104.732176765334,1731785230.7645724
924,-843.8654161519371,441.7102340166457,480.23120356025174,2633.7572255954146,1731785230.7782085
925,-1280.5660541779362,308.52491679461673,276.8891030694358,2810.402050252538,1731785230.7782085
926,-1216.550186636392,600.7345200325362,598.7224538563751,2542.4101691776887,1731785230.7939548
927,-752.8437310303561,660.1727500283159,707.9237926625647,2084.887638148386,1731785230.7939548
928,-1036.5488017690368,790.7494870312512,778.5087944762781,2531.4148633079603,1731785230.7945995
929,-1268.0747883259319,369.08324682712555,350.77643654402345,2084.0368109084666,1731785230.7945995
930,-794.5361357363872,558.2137274863198,590.0627155089751,1986.9246987090446,1731785230.8082042
931,-819.7655008374713,307.24400105979294,313.4110960867256,2318.053570835851,1731785230.8082042
932,-1270.8797132926993,281.7191838622093,235.1125506144017,1834.3311706669629,1731785230.8239508
933,-968.3928649765439,166.55083467671648,166.40871847840026,1401.6116561437957,1731785230.8239508
934,-733.3177133616991,587.6598297874443,598.3933426602744,1822.3578809588216,1731785230.8247051
935,-1191.7322105304338,423.50066113239154,362.21492055850103,1934.721305177547,1731785230.8247051
936,-1154.800698467996,678.6141967098229,630.1824922836386,1607.3435527062975,1731785230.8381808
937,-700.7357049477287,728.6428384170868,748.5727652809583,1136.1367277391255,1731785230.8381808
938,-992.0851311958395,850.2026766268536,826.1812992114574,1589.0853611226194,1731785230.8539948
939,-1218.5921720121987,441.34185387101024,402.2673791339621,1152.5754579943605,1731785230.8539948
940,-752.1481096385978,627.5813918644562,653.1922267610207,1063.309655901976,1731785230.8546488
941,-773.1401680898853,403.47162691969424,406.3737892853096,1429.8479008092545,1731785230.8546488
942,-1187.846454476472,415.04848723253235,354.40787940099835,981.8602447169833,1731785230.8683357
943,-896.197836231906,290.0367213636637,286.1191761600785,526.6938506597653,1731785230.8683357
944,-649.3046007570811,742.0559896081686,762.2720188186504,45.505232710856944,1731785230.8840263
945,-1087.4712795657106,638.7973518315703,574.8244931395166,221.31231977790594,1731785230.8840263
946,-1046.9494635458104,931.6464779619128,892.6262317742221,-66.59078866103664,1731785230.8847551
947,-588.5648855767213,971.2370588928461,982.0360200149007,-546.2123885285109,1731785230.8847551
948,-895.1132652447559,1070.4061160678975,1017.406123845838,-155.18901861133054,1731785230.8982975
949,-1155.776812356431,1546.8001822736114,1498.5910018947907,291.2596686491743,1731785230.8982975
950,-699.4865783625282,1652.949762715958,1713.216380551923,169.9915426359512,1731785230.9140253
951,-732.281761073973,1412.1675237687305,1474.7528795772232,559.5152126708999,1731785230.9140253
952,-1139.411010150332,1432.9594975723885,1462.3027526247315,169.38754879310727,1731785230.9147627
953,-820.6406374271028,1332.6198517112061,1440.05595773831,-221.32540942775086,1731785230.9147627
954,-568.9079714096151,1774.7545643728226,1908.5083463881165,259.23677527857944,1731785230.9283104
955,-1018.4028071840294,1604.9631063845009,1659.3599512400106,335.95147311966866,1731785230.9283104
956,-1014.5282708299346,1806.4053376978263,1859.440858969465,-105.10053850477561,1731785230.944607
957,-633.8176750405692,1749.6018672208302,1838.9405973623507,246.96990342391655,1731785230.944607
958,-944.5622224588878,1879.4081848328933,1895.7216284396127,696.4516495484859,1731785230.944697
959,-1185.5351963038556,1463.9875775547698,1465.0197899425402,261.4115271028131,1731785230.944697
960,-737.4989215121605,1623.7822829615325,1685.5242913300171,130.18030760763213,1731785230.95831
961,-761.67363482574,1381.1076546367258,1403.2815214740112,465.9578753793612,1731785230.95831
962,-1217.743214722257,1333.0499402061105,1290.3851615116,927.4783594612963,1731785230.9740913
963,-945.7589904447086,1177.2625376018696,1199.8926722337492,459.61126515455544,1731785230.9740913
964,-698.8320958702825,1616.2968732002191,1657.2712171147577,938.9093636758626,1731785230.9748445
965,-1127.2226761947386,1496.825769115705,1476.312417858746,1128.96546957409,1731785230.9748445
966,-1093.170887098182,1744.5343027808703,1762.1754108718596,798.3115647416562,1731785230.9889004
967,-676.6432694331743,1743.0813516480848,1806.5268844463862,1243.288601369597,1731785230.9889004
968,-964.2827149252407,1886.6430212971754,1895.8039062386379,1718.3998818905093,1731785231.0039957
969,-1198.4303713510744,1454.9426295119338,1462.7010519700125,1252.924453605432,1731785231.0039957
970,-758.621876461897,1591.6509324922226,1663.1746491948143,1091.927370362915,1731785231.0050097
971,-787.4004066209309,1360.8841456263326,1401.572387194261,1447.1411982043646,1731785231.0050097
972,-1202.981829597149,1380.1988589474931,1367.0381510034204,1024.1098945164122,1731785231.0183935
973,-898.2585211074911,1252.9319334053434,1293.6931030224077,571.8232234250754,1731785231.0183935
974,-665.5058473651297,1683.0466076093726,1731.332455937285,1036.0906640244648,1731785231.0340035
975,-1081.7155735339038,1571.541490430478,1574.5483699948527,1235.6124567105435,1731785231.0340035
976,-1018.1746732867323,1841.999835526105,1876.698627314996,906.4096330609173,1731785231.0347009
977,-609.5831233276986,1825.5162264714018,1892.099535332527,1331.2996670268476,1731785231.0347009
978,-891.530441087205,1984.56856173696,1995.0346717629582,1820.955418475438,1731785231.0483463
979,-1143.1284707062878,1541.4539952869527,1533.86386832688,2297.4729013796896,1731785231.0483463
980,-753.1017841272987,1604.6919636377133,1641.6328254500404,2026.8481307360344,1731785231.0643952
981,-786.7646236284636,1346.9081394919194,1367.8721486935392,2360.665990930982,1731785231.0643952
982,-1200.6817911243998,1365.7067466191947,1335.7239686744288,1936.25466415938,1731785231.0648315
983,-919.3141578580253,1222.8406983618625,1244.1656079092063,1454.5798592162319,1731785231.0648315
984,-679.9568207939155,1638.9905861313455,1682.5865999148227,1920.9790427903645,1731785231.0783267
985,-1110.9279320877977,1527.5116482521407,1509.4479314661585,2116.2635288266465,1731785231.0783267
986,-1086.368009078782,1750.1329330145381,1756.5057225390337,1729.137134663295,1731785231.0940838
987,-681.0039927815087,1722.986869186163,1759.2844682061113,2128.1769801354967,1731785231.0940838
988,-968.0637537804432,1883.127515338827,1857.1333406968042,2618.027206381783,1731785231.0947435
989,-1192.1922182249837,1464.8458845946006,1412.3320793667808,2141.9641213221475,1731785231.0947435
990,-796.2228306164034,1551.1515558720566,1538.5761422710493,1905.1779654775746,1731785231.1089609
991,-815.6628305860795,1322.7483857781626,1272.1755886273459,2280.8303465768695,1731785231.1089609
992,-1229.0713716880418,1337.7734338501468,1258.1734031932428,1864.4523249100894,1731785231.1241355
993,-948.7434306093492,1167.9726261119358,1164.1167892576195,2335.268330331892,1731785231.1241355
994,-737.0650931173004,1565.8231833982281,1572.252071422059,2773.6519233379513,1731785231.1246824
995,-1152.171548799146,1455.2493013083003,1408.0667234673165,2998.9154474190436,1731785231.1246824
996,-1131.6245384425856,1672.4178119353019,1658.1164345047437,2612.323858949356,1731785231.1385849
997,-746.3288253075443,1620.5996280992404,1663.1877388446592,2995.510268509388,1731785231.1385849
998,-1016.3421223084442,1800.3149106199853,1769.5748029341921,2544.313778255135,1731785231.154538
999,-1239.1092631691135,1382.5007673702203,1346.2667466495186,2078.3596427757293,1731785231.154538
1000,-840.1778747956268,1458.136504074093,1471.5010365657508,1806.444606647361,1731785231.1547875
1001,-869.3042156505398,1226.042052723933,1219.9254463464022,2197.049107769504,1731785231.1547875
1002,-285.12249282188714,-703.5555895143189,-759.6166898501106,-1150.8756734644994,1731785231.1692367
1003,-19.133328173309565,-893.4695792142302,-875.4133422281593,-709.0850315988064,1731785231.1698074
1004,185.21480540558696,-497.66474720370024,-466.3019461752847,-272.8406613674015,1731785231.1698074
