,ch1 - AF7,ch2 - AF8,ch3 - TP9,ch4 - TP10,timestamp
0,160.0957673531957,265.9685951988213,211.33239674614742,-35.48043087963015,1731806949.418697
1,191.9297957760282,154.20355497300625,171.1191224725917,255.92135396786034,1731806949.418697
2,486.2655321387574,538.4539660704322,530.2112265680917,361.54173856647685,1731806949.4324248
3,299.0947590563446,505.1501569650136,571.297767481301,346.7317347419448,1731806949.4324248
4,349.5834084581584,446.4355976106599,605.4318343768828,738.9163435953669,1731806949.4331732
5,796.3425074149854,819.4214300415479,858.3556585302576,758.4330115141347,1731806949.4331732
6,1199.629009286873,399.92433181172237,442.4713036576286,1146.2512871692888,1731806949.463133
7,1167.1348885218613,387.1095646135509,622.4278097255155,702.3868707781658,1731806949.463133
8,1018.7730572796427,-16.93052709940821,919.317897757981,923.2934114108793,1731806949.4638112
9,1270.1560426512733,359.1968212942593,1314.9675239203498,1058.4141268599778,1731806949.4638112
10,1750.3367575621232,-93.47131959255785,996.0943039483391,943.7469242685474,1731806949.464598
11,1266.5451692440547,134.56534030567855,1058.6216913075186,1147.878143650014,1731806949.464598
12,1527.8762884978205,474.9542047227733,1363.1935338489711,1202.452633753419,1731806949.4772005
13,1633.7790355430916,826.474881357979,998.7795521165244,769.3254701350816,1731806949.4772005
14,1289.3772584735416,1149.8827300262637,1086.296950979624,1249.4725259463303,1731806949.4925456
15,894.1371513563208,771.1131423139013,698.4169669752009,1601.776711622253,1731806949.4925456
16,453.4497799775563,571.3763053803705,615.8811148530804,1330.4432299369946,1731806949.4931495
17,122.11895325314254,1054.2011295598932,1027.3000291786157,1137.8701713685878,1731806949.4931495
18,110.6449401890859,905.1361971260048,816.4818686763756,811.4928421354853,1731806949.5071878
19,569.0201684082858,607.8590294481255,682.3204375659116,431.64990313583985,1731806949.5071878
20,771.8012839057483,798.1413992936723,826.7254546550103,784.2364512584172,1731806949.5225716
21,1247.7820911663584,1047.087839844171,936.4653390548192,1036.5413219691254,1731806949.5225716
22,1600.377989038825,1517.643922219053,507.6222308357246,1328.9285704549402,1731806949.523062
23,1296.331602441147,1284.2554654842243,241.18053829250857,1016.2355351597071,1731806949.523062
24,1183.395973529201,1031.9337652237155,0.04113889951258898,1140.0524029927328,1731806949.5366464
25,834.9195754579268,685.9668400227092,-337.51101140119135,1555.9124485156499,1731806949.5366464
26,1055.530663994141,1001.9678168287501,-101.41299714846537,1611.728585404344,1731806949.5681612
27,792.4717109608464,675.2370670498349,-392.23696745280176,1686.8070770148188,1731806949.5681612
28,891.807193683926,652.7565284161828,-445.97185001615435,1523.6315020481125,1731806949.5688348
29,1045.7209064103663,900.5679093301296,-261.2825005543418,1471.7216906631365,1731806949.5688348
30,1362.146361861378,1289.2594516249374,204.29016512958333,1166.0091786351986,1731806949.5696285
31,922.6426688185893,1663.4588815914467,509.5632389127277,1597.3542799246497,1731806949.5696285
32,1241.672964588739,2080.246422303375,946.1236306903884,1784.5605820566416,1731806949.5824068
33,1023.8312719697133,2028.3515705182217,981.1328341756016,1758.781451662071,1731806949.5824068
34,1218.0928953681141,2179.379950428847,1337.6425373516977,1492.6819599648006,1731806949.5831044
35,1492.0237375725992,2270.489523199387,1151.616173655726,1105.6397135504521,1731806949.5831044
36,1937.361674546264,1951.5134559785947,941.7367280423641,693.8168900297023,1731806949.6136422
37,1908.7346103354357,1937.0568726998754,1098.9284630799666,239.66026896052063,1731806949.6136422
38,1750.3087083124556,1588.389739730861,1534.479081869591,582.2930733510293,1731806949.6139035
39,1999.028884915635,1974.5437599057332,1926.5982424737886,733.2672247122973,1731806949.6139035
40,2466.594917275943,1587.522082941141,1716.4065152141266,727.0646006357856,1731806949.6146529
41,2898.4411651594564,1748.771609430667,1727.4093008837663,879.1102333343588,1731806949.6146529
42,3289.7450275733136,1267.1585128367878,1307.2128413622268,1200.6238226750866,1731806949.6271973
43,3373.705781578552,1630.059705037158,965.1260623652488,785.0891484483145,1731806949.6271973
44,3059.0399490566924,1981.7411973704584,1154.0097096273676,380.79287358839065,1731806949.642594
45,2726.7610576935112,1665.2521636202,859.5000679166988,842.9753199624829,1731806949.642594
46,2257.295156155713,1365.2074699751101,656.8199297180399,460.3012766963802,1731806949.6431026
47,1999.1167725645937,1032.384423168376,343.1900494839065,526.7966979085468,1731806949.6431026
48,2021.3205586015247,961.8125110045075,221.26557102845982,305.024370436091,1731806949.6565568
49,2505.4001192161813,706.182869233191,135.43486704537645,-25.14521735208109,1731806949.6565568
50,2608.621357993223,737.5456702616066,75.70492485305294,144.6088416366838,1731806949.6725523
51,2154.5208354233764,1093.374711645767,356.4928736262955,560.8036082056351,1731806949.6725523
52,2532.480734795332,620.082892453298,-44.44310112344101,894.2325188051909,1731806949.6732512
53,2289.570492773317,492.69442016258836,-160.23040375160053,737.6204682607204,1731806949.6732512
54,2135.81011594506,144.06281624315307,-543.4822615608573,734.0694332527928,1731806949.6869917
55,1834.643452313263,-105.19777590362355,-720.3496102653444,321.3565135425888,1731806949.6869917
56,2124.6820436269045,270.0095571009442,-419.68596317758784,449.3639392759651,1731806949.7194648
57,1900.6302471314557,-4.960977291222662,-639.765985920094,603.619852848351,1731806949.7194648
58,1933.575025841128,-101.29332034988329,-804.452480468899,338.8611152851954,1731806949.719514
59,2141.657449525781,229.0015540868044,-474.7298107254319,431.16745604155585,1731806949.719514
60,2507.1092534959316,685.789194774814,-895.5489635895938,217.79681381955743,1731806949.720364
61,2068.3946793437935,1018.6253312313929,-663.3834541402757,589.2025385191664,1731806949.720364
62,2278.485429304652,1284.3209137334488,-433.1122040185146,585.0250702686608,1731806949.7212822
63,2095.0358566781506,1262.7342111892067,-393.4730043881573,570.8171903369948,1731806949.7212822
64,2274.106006456539,1416.2234452706762,-12.64647170016542,310.9857709654607,1731806949.7319303
65,2572.6603499692865,1548.3036220557988,-162.12279312917963,-35.89368982473388,1731806949.7319303
66,3035.512238435447,1238.3220142284408,-360.13927608309314,-439.1558823469095,1731806949.7467866
67,2817.231107571628,968.2021300788037,-615.9989217016846,-314.4002996250056,1731806949.7467866
68,2685.5679296315648,637.8829462924041,-1085.741575836204,93.51245849207044,1731806949.762506
69,2951.921734525822,1063.283476602286,-624.8381752469577,323.3872792185284,1731806949.762506
70,3424.888182422146,684.4409608407877,-838.4481710661203,312.45742159802467,1731806949.7631748
71,3874.6709904931486,882.4611836946569,-779.499867964536,506.3861939003691,1731806949.7631748
72,4144.076553751249,1198.5107792001218,-502.0011612023227,549.1912188432179,1731806949.7767544
73,4166.059685690794,1477.8326871907339,-939.8817376643419,1021.5181438471191,1731806949.7767544
74,3891.709974691272,1938.895033528097,-642.1034233924001,722.971280134283,1731806949.7924426
75,3429.0581708727404,1466.5681085241958,-161.53188893618062,968.4826225754805,1731806949.7924426
76,3036.6080291224644,1304.2564504472539,-164.8379604970105,763.8053778004833,1731806949.7931128
77,2713.7106767981313,861.0203372486867,-652.9827923635021,666.480091303587,1731806949.7931128
78,2686.903073915746,749.0776517749764,-809.1161357136443,400.4161286558956,1731806949.80691
79,3168.4507222604007,458.32286961982027,-948.0048003681004,22.450619434006512,1731806949.80691
80,3338.1225034501404,603.4534273003228,-830.6542195584625,362.11207330971956,1731806949.8226752
81,2877.376178659033,956.1783517212607,-520.3061015354469,790.8916032295674,1731806949.8226752
82,3242.3960241843015,1421.67808935605,-49.31619076570496,1026.6904254858382,1731806949.8232205
83,3015.0512457778677,1284.7715716781095,-180.52684081112966,847.2275862121023,1731806949.8232205
84,2768.604928347748,923.2447927114554,-572.4777059173211,819.0904488954693,1731806949.836871
85,2447.897287447471,651.971149425488,-783.2846467196941,365.6200994681567,1731806949.836871
86,2817.5359094180167,1096.1758967125788,-359.58577088965103,610.5554973161779,1731806949.8683653
87,2573.5130471591838,774.1574208778329,-693.5831462824717,654.50306169549,1731806949.8683653
88,2579.0518389935605,702.5383367263712,-824.2365512344986,407.22461652522907,1731806949.8689184
89,2818.4933238066733,1010.5583670269698,-521.957267365884,471.9940739078447,1731806949.8689184
90,3155.637825012207,1381.3806673334911,-57.73844546591863,168.92567114857957,1731806949.8698125
91,2703.9869369133376,1762.050124223344,258.3242396893911,602.13698251592,1731806949.8698125
92,3053.6470133205876,2202.829123151023,708.4417688064277,814.3893946511671,1731806949.882547
93,2935.267960023135,2239.768115013372,859.1298178210855,915.1422994574532,1731806949.882547
94,3024.7413265630603,2316.8287536003627,1122.3290171027184,541.9358129291795,1731806949.883108
95,3416.5986941703595,2578.406706251204,1182.2440843428485,394.9801840703003,1731806949.883108
96,2934.5405494817533,2298.9202426625416,993.6783285769634,16.143278158735484,1731806949.8966684
97,2915.476409457624,2317.174694346264,1215.8358657448553,-384.9666019389406,1731806949.8966684
98,2772.5860518505797,1950.496203190647,1660.9681082209572,-32.950388559605926,1731806949.9124808
99,3120.940903173294,1468.5876545002684,1229.6791054308414,281.82016116101295,1731806949.9124808
100,3578.809374948498,1068.771779787261,1011.1511411699466,264.79052671277896,1731806949.9132793
101,3978.5747610121034,1270.5618217964657,1050.031141109299,440.62192312953994,1731806949.9132793
102,4343.093459943309,1748.5827444829047,589.8514111614786,717.2267938023433,1731806949.92689
103,4358.030620366335,1976.7577806795016,998.7458930169232,1074.9631841639057,1731806949.92689
104,3928.8228719015606,2224.081104649231,996.5243924432434,1470.3940261788666,1731806949.9425044
105,4334.199977848679,2576.680742421653,1220.2545575425029,1463.96139825508,1731806949.9425044
106,4805.171189118642,2235.560727563221,934.574819627218,983.4478322481737,1731806949.9431412
107,4419.06952754315,2683.5820427550934,1293.7099325722083,754.8857164061628,1731806949.9431412
108,4395.186526426114,2559.035894430708,1074.7799290660769,417.9244702984579,1731806949.972898
109,3941.0654344065115,2305.6277532330714,1006.79228777159,92.62797215254977,1731806949.972898
110,4173.788188949227,2482.9663293319754,1106.7074549878016,434.1144972066395,1731806949.973818
111,4537.527118739672,2644.9152171132155,1104.0670856190845,563.253242676612,1731806949.973818
112,4907.203139709774,3050.3297220598906,1491.1186817833222,696.1786368517205,1731806949.9743652
113,4747.221439305227,2975.441965347156,1464.2400208017789,621.4741352368146,1731806949.9743652
114,4534.26592597831,2591.853516541887,984.7642770325765,526.4339276128449,1731806949.986601
115,4328.724764313549,2479.944490167778,997.0984670864418,284.6306959777139,1731806949.986601
116,4543.70730341645,2724.337602522224,1055.6522107427008,172.08214671118185,1731806950.0187593
117,4179.835607177578,3213.4529384272173,1450.645484462846,-5.4116352358832955,1731806950.0187593
118,4207.2902127522975,3152.4813494496047,1353.7708559106104,-205.97499005962163,1731806950.0193138
119,4380.778561846819,3375.186781961005,1478.3899322841316,-312.9922272916883,1731806950.0193138
120,4694.773082326632,3703.624796069693,1825.5648451708257,-716.9631308554672,1731806950.0204525
121,4215.2262804582715,4014.6947147841565,2025.9561645966023,-379.21276585711166,1731806950.0204525
122,4473.898330843542,4337.543448409066,2306.2672761254944,-347.6012614816427,1731806950.02103
123,4291.7502434016205,4243.05487602856,2210.6642135581933,-488.99565910641104,1731806950.02103
124,4270.733875600621,4111.793737333734,2113.7914549559355,-202.37720630224794,1731806950.0317678
125,4525.84928112803,4189.574306662194,1940.6640062071383,-616.3542121974751,1731806950.0317678
126,4072.868858594913,3942.883025784977,1807.3440525867045,-961.4721801085398,1731806950.046928
127,4039.9371695350856,3920.351998501923,1882.9835291905329,-479.7431466160342,1731806950.046928
128,3997.081655942835,3702.6973008806817,1536.92684639059,-940.9962278511375,1731806950.0624783
129,4412.937961565796,3310.9091214225627,1255.8658849205822,-495.5797529784031,1731806950.0624783
130,3983.9022484989837,2980.0046432930976,1068.0088401963003,-439.5635314420797,1731806950.06302
131,4405.957438298501,3152.8927384447306,1073.3381976331584,-291.9272407912649,1731806950.06302
132,4764.993443894666,3607.931975903455,1534.5071311192587,-86.43656777590513,1731806950.0769067
133,4761.911766331177,3795.3271429832093,1879.8607127275318,204.85675997287035,1731806950.0769067
134,4471.1513743260875,4227.1584312669,2111.637272581458,-123.10815679142252,1731806950.0925813
135,4043.175922896713,3765.43412263738,1630.3345876839012,133.71264311578125,1731806950.0925813
136,3604.4557388946414,3498.8166547962464,1462.996504066512,-236.71322779543698,1731806950.0933032
137,3319.806343417149,3143.8758396515623,1050.861398899462,-231.0771985622123,1731806950.0933032
138,3302.318571224343,3023.2528463806957,853.1665473417379,-543.220468563959,1731806950.106917
139,2952.043281274382,2875.9456669259816,936.1811066581868,-737.1679403660819,1731806950.106917
140,3311.144735119771,3274.2450122069567,1366.8829451552592,-1045.0645539681427,1731806950.1227543
141,3790.5363311399706,3614.7442036727443,1602.9753495580517,-660.557959723752,1731806950.1227543
142,3392.783011252526,3347.423634639941,1496.7135721170343,-1032.6555659151636,1731806950.1231167
143,3185.835647204425,3227.410245061852,1393.6045303386636,-1166.775858126115,1731806950.1231167
144,3074.242642376572,2981.349137327168,1102.7244615349919,-1056.1645770366304,1731806950.1372645
145,2799.2178794350475,2769.8241357333027,1038.6412757942453,-1380.9337492887862,1731806950.1372645
146,2372.917903185822,2483.4936552257277,849.185423838906,-1773.8401588336565,1731806950.168975
147,2249.7648675949313,2345.3398809125647,788.4101796089672,-1409.181213654112,1731806950.168975
148,2426.770592597779,2480.342789513059,1024.5399830113165,-1296.296073391568,1731806950.169572
149,2729.6669599590823,2898.469214409124,1463.9913174547255,-1107.885523473844,1731806950.169572
150,3050.1277674622834,3262.159525500145,1814.236688205041,-1479.8054844173603,1731806950.170464
151,3506.2123069586232,3540.0116528081708,1998.931647516787,-1170.0146114877425,1731806950.170464
152,3899.8536068447866,4001.846288486384,1509.7415136126801,-949.2127880537882,1731806950.1709423
153,3741.5249422206543,3947.943110425025,1500.1486702263355,-1002.7195367198437,1731806950.1709423
154,3827.7670351988636,4056.2057343423367,1789.8936793934554,-1308.0879779518582,1731806950.1819172
155,4128.363364087418,4108.061317177955,1546.1270002815872,-1773.5708860368468,1731806950.1819172
156,4551.97622221848,3719.6353077800013,1211.1666006501764,-1351.0425988929346,1731806950.1969364
157,4322.883040582761,3415.594531032257,873.2311106040142,-1268.072918375954,1731806950.1969364
158,4102.464556894265,2984.46260404028,1248.449663308449,-1014.1355813345872,1731806950.2125978
159,4409.710427904036,3459.188674865756,784.5786521043628,-777.4990214882419,1731806950.2125978
160,4833.257837785874,2990.80547436513,384.89367388980463,-931.1509412177838,1731806950.2131572
161,5111.102485293988,2991.459956857376,109.24060775572434,-1063.936089144554,1731806950.2131572
162,5392.187756113708,3272.519048377406,346.6737662926316,-1105.9763045464642,1731806950.226789
163,5384.251688407734,3453.391829934437,690.1573979230598,-826.6132576563396,1731806950.226789
164,5024.007695125882,3773.1682357457466,729.3814686583355,-380.3010767442174,1731806950.2424576
165,5450.040268528275,4125.887550316751,1002.3399368743412,-377.2175292307511,1731806950.2424576
166,5096.623462615535,3949.5550073059276,969.5634536626749,-627.8095257617533,1731806950.2432065
167,4756.537530094851,3514.344719412271,1378.439236018341,-754.4593678112142,1731806950.2432065
168,4637.642370603513,3249.107274654787,1001.3787825857289,-295.48949549905956,1731806950.2567205
169,4252.971220761072,3081.7841506372206,1060.1101714898832,-539.9368364028633,1731806950.2567205
170,4470.147211187985,3281.139517775271,1179.9403059701435,-151.2527739079669,1731806950.2725513
171,4948.274721023161,3561.994784747716,1361.6657847170718,151.71652150247246,1731806950.2725513
172,5420.700753375888,3207.9384559425525,1166.0353579348885,614.9423999642022,1731806950.2731452
173,5313.859291441739,3179.395539480727,1150.929902013857,562.9353511803783,1731806950.2731452
174,5211.952627499122,2954.117055799812,896.6185749769211,738.0262474059127,1731806950.2868648
175,4954.052866454702,2774.1455901321024,853.4414299884811,388.7569905440323,1731806950.2868648
176,5306.476728929207,3191.071507142391,1203.3408599928953,512.5607687272131,1731806950.302395
177,5134.675074714702,2917.6679908316582,919.992949699983,694.4919419717044,1731806950.302395
178,5219.208033413161,2953.223219710402,964.1050696773455,556.6654089046642,1731806950.3030314
179,5430.065462864935,3265.5254354602657,1248.9900788520463,524.2890949882567,1731806950.3030314
180,5835.00313056726,2777.8368713883683,838.9081787606701,383.77170390309766,1731806950.3167584
181,5484.864346965682,2302.957464664709,354.90341614512727,24.50756440963596,1731806950.3167584
182,5680.242330500856,2447.394270903431,375.56075355038047,-263.50961097795516,1731806950.33227
183,5521.693011779338,2384.85940374434,354.8753668954596,-357.3624003659934,1731806950.33227
184,5460.0463708597235,2140.6532863876782,40.35539047187194,-210.44417050667107,1731806950.3332171
185,5913.118420941755,2556.2328394139186,397.16615559440106,-168.835913549643,1731806950.3332171
186,6364.406538744923,2099.022590030916,-67.29949970263988,90.32606372982264,1731806950.347176
187,6266.509047554806,2010.5907856286503,-103.86263161944225,535.9800222497433,1731806950.347176
188,6068.537443400361,1587.3014288437553,253.02293150220066,730.2622150979005,1731806950.362082
189,6407.295711436775,2002.9520399691537,719.6633386234753,872.1184903671965,1731806950.362082
190,5981.356635533273,1673.3490470242687,513.0058168219402,944.4780747098848,1731806950.3775067
191,6422.414257007651,1873.5309320525266,519.6964978426695,1098.0383668905124,1731806950.3775067
192,6729.978019513655,2165.925660338253,818.0900256573223,1063.0478629050776,1731806950.3781037
193,6638.7992585939355,2274.977403146215,1035.146339285653,1217.685246272944,1731806950.3781037
194,6411.684484034777,1807.544137234334,1340.1501402719878,1008.0245848069899,1731806950.392058
195,5938.89381143637,2227.177741812542,1738.2007822059095,1075.6288863560185,1731806950.392058
196,5569.02518561855,2051.166830197908,1706.3929330827668,792.0434924159199,1731806950.4250948
197,5169.624439800624,2432.0232820855454,1865.0581887029111,478.5407687802799,1731806950.4250948
198,-603.0850471546873,-1402.9561501778662,-2522.9944785577245,-2057.3208355749957,1731806950.425377
199,-273.05944551480934,-932.0522571071051,-2945.158125455957,-1849.2309320904315,1731806950.4260197
200,26.581338935066015,-685.7312263255008,-2812.141103731934,-1414.512441040948,1731806950.4260197
201,407.7743818187155,-551.5136967157014,-2872.6564249149524,-1344.090124875307,1731806950.4266913
202,724.9272478111088,-140.30234683770686,-2405.5747095989063,-1234.015519429464,1731806950.4266913
203,572.2420922201127,-168.99859919771552,-2382.0208196779713,-1272.2260772767477,1731806950.4376168
204,542.1041084271856,-377.6719270753674,-2659.889776535798,-1091.3832149193622,1731806950.4376168
205,498.5903724427335,-282.94400109769776,-2238.006622134242,-1038.5346886455081,1731806950.4381533
206,711.2130346735939,-116.4978836197406,-2278.67803415237,-1294.2428683158942,1731806950.4381533
207,549.7409841367044,-240.60459369933233,-2350.2503695543855,-890.0008220053278,1731806950.4518952
208,756.4340349878184,-85.51842233678326,-2103.607707376592,-824.4216762823053,1731806950.4518952
209,991.4250388536602,164.32372425310314,-1866.350324137602,-892.50655497564,1731806950.4673743
210,1354.367369953543,597.3667401224375,-1427.0167965427972,-1208.7020065793768,1731806950.4673743
211,907.9373821928166,1035.4922800315544,-983.2814067001455,-1614.236188324634,1731806950.4679816
212,1307.8392746048048,1384.7260078438558,-670.5416226554662,-1522.4870926616713,1731806950.4679816
213,1273.4434147123247,1453.6523640272208,-539.8620384037495,-1392.3984126029536,1731806950.481691
214,996.6665086415596,1112.672595417127,-877.479636953678,-1516.9726101770066,1731806950.481691
215,506.90790994418785,1461.4238761351444,-657.7549047069624,-1468.8905863966793,1731806950.497475
216,228.99220433691517,1266.952818339225,-747.0001373495907,-1660.4594818269834,1731806950.497475
217,-144.8051863843575,924.0844002515078,-1101.1032149042003,-1779.9436755613424,1731806950.4981456
218,-231.75412045419216,685.2356895813718,-1436.5423217299394,-2172.5621128096245,1731806950.4981456
219,246.27428203215823,317.9326351331547,-1711.0995971770026,-2647.6416041809134,1731806950.5281713
220,-210.90043830126524,-37.64396300399676,-1936.845568352379,-2711.034778379835,1731806950.5281713
221,-50.17449780553579,-96.27063470939174,-2208.582959232852,-2884.876548020169,1731806950.5288632
222,390.15571312746033,389.24130758829415,-2633.0129855042323,-2544.719557400327,1731806950.5288632
223,416.1779370191507,533.1339583834633,-2433.6763178659603,-2303.619426956866,1731806950.5296304
224,-66.91802990715951,906.5255699595436,-2176.3973802141845,-1831.6066535492428,1731806950.5296304
225,-375.5083949510008,524.7715420825407,-2502.95422464516,-1359.1133029973134,1731806950.5416193
226,-487.6380754224956,636.979760453105,-2198.9377572471276,-1156.92309169285,1731806950.5416193
227,-195.50701008364558,770.2323958743364,-2317.0961564471945,-1023.098251578398,1731806950.5583196
228,-307.13554396107793,533.9006378743798,-2665.0227892249823,-1434.7714791009203,1731806950.5583196
229,-735.4625459862873,214.6627776566893,-2835.4126312062144,-1798.7048836890608,1731806950.572351
230,-534.2447086703032,356.2890490787104,-2826.092800516635,-1596.9073618799448,1731806950.572351
231,-341.5725427530706,427.8707342306152,-2878.9637661902234,-1580.358304576017,1731806950.5730302
232,-671.0203298497945,241.8518503345549,-2864.4043356627226,-1783.3787736706436,1731806950.5730302
233,-1041.3564431620762,-202.77737559750676,-2598.5554172624834,-1437.7615291154943,1731806950.5872543
234,-629.3765438431874,41.46801070868969,-2511.5840437929146,-1157.6018835348077,1731806950.5872543
235,-734.3293562997133,65.55670632328838,-2257.0240134089254,-1117.435358010698,1731806950.5879557
236,-1180.2638073163107,-398.01511288434267,-1831.5486850999296,-748.6681327298284,1731806950.5879557
237,-707.9181828126311,8.302577901631594,-1529.9145339736715,-1194.7166506950743,1731806950.601674
238,-603.8592064455152,173.3817619457841,-1275.0253923935816,-1016.0504101119004,1731806950.601674
239,-291.5233315960504,461.7186987795867,-1006.8539961208589,-938.1277245851234,1731806950.6337733
240,0.7498499411158264,801.2268167571165,-717.2698026518337,-448.11481269076467,1731806950.6337733
241,346.17074974859133,1026.9559583826922,-568.0964131192304,-224.5174140399322,1731806950.634523
242,660.2381982775405,1344.0938647752628,-234.49546712171286,-128.49361272761598,1731806950.634523
243,642.0884637925774,1307.8168352050707,-352.638906721957,-166.64433217560872,1731806950.6352227
244,898.7203987520188,1341.8798440014943,-639.1115034278482,-235.37247366132215,1731806950.6352227
245,1237.6394824865274,1554.1472157365642,-559.2739891237579,-350.7783064940013,1731806950.6360023
246,761.2211069311015,1149.8116719271056,-966.4967356990092,-836.9840002334677,1731806950.6360023
247,617.7043160814792,1119.8307639323175,-838.0984904202633,-501.8029465046711,1731806950.6467533
248,378.8518655113876,634.0140197882429,-609.9814226729795,-328.87184250354767,1731806950.6467533
249,830.9178825053386,271.5466559827328,-794.4108490878716,-733.1849469132721,1731806950.6616127
250,436.5734814275056,-64.51514418562874,-1068.9737343848683,-806.2308028978296,1731806950.6616127
251,648.9362206114456,59.33912264695391,-1050.9137574988417,-741.5903720636852,1731806950.6772845
252,283.7349899383262,-192.3000458716415,-1097.501691246871,-1033.676558603067,1731806950.6772845
253,540.5875789951533,240.70557099813595,-1456.8294090395793,-1336.3223526673391,1731806950.6780365
254,153.9810309256427,-193.85023440327495,-1936.2228750097565,-1605.21554963151,1731806950.6780365
255,-57.573889867868274,-400.47222715523094,-2016.2567340615205,-1908.850547234062,1731806950.6916316
256,13.734782587271184,-95.44598676916212,-2352.60650652647,-2342.901466141455,1731806950.6916316
257,-410.91402783151716,-558.7728425296955,-1909.2787657789886,-2632.36411286192,1731806950.708452
258,-298.0588067686185,-523.561684446875,-1810.908177244477,-2630.5988800828345,1731806950.708452
259,-507.5418229866773,-508.3814305267297,-1462.959105066955,-2510.6191496043466,1731806950.7223883
260,-995.9559276499785,-898.8886942500249,-1793.3100780029781,-2635.369122476317,1731806950.7223883
261,-1399.31722752098,-1302.7249614153989,-2041.1364185167477,-2851.8476215614937,1731806950.723261
262,-1456.6835529413074,-1133.995635014493,-2474.446837232914,-2545.8153480873443,1731806950.723261
263,-1446.7952574584633,-1106.993557334412,-2450.5077376165427,-2447.88980764756,1731806950.7374322
264,-1689.4380966336466,-1333.8353191968054,-2562.751485036686,-2369.097595381085,1731806950.7374322
265,-1626.8733102749102,-1155.9133187048137,-2072.7722322419286,-2101.9976804456674,1731806950.738077
266,-2067.0071764602326,-1587.3107785936445,-1616.7419212949462,-1702.6006745276973,1731806950.738077
267,-2517.8091072691604,-1126.3232302553952,-1186.664646090474,-2023.1755489795469,1731806950.7516465
268,-2460.308145450428,-1126.4503868538886,-1183.1341805323027,-2103.5646985271014,1731806950.7516465
269,-2198.161728006322,-883.6916107800789,-1001.1525186384097,-2114.1860144012608,1731806950.767337
270,-1830.7988351588137,-470.6533197737299,-598.0249625146389,-2488.2489380193874,1731806950.767337
271,-1530.7728410135023,-262.172596743796,-440.9603840755299,-2277.9244443112984,1731806950.7679377
272,-1056.9368663774803,206.6519119516015,-875.0842310320586,-1974.9869380504824,1731806950.7679377
273,-940.6371974553913,429.0525426166132,-554.3616305319592,-1602.4181044646539,1731806950.7815447
274,-1272.9553577681072,73.25155048212036,-901.6506103673019,-1755.8456301968545,1731806950.7815447
275,-797.4775670515373,388.9570751916617,-704.6008915519342,-1754.3291007648222,1731806950.7972877
276,-1112.515519618988,150.09714482165873,-902.92778620217,-2021.5412126989104,1731806950.7972877
277,-682.6327192122117,535.4601761559024,-640.0315188169479,-2496.7646902184933,1731806950.797936
278,-955.7688326761127,60.982808677479625,-343.42566318111494,-2272.780211922247,1731806950.797936
279,-634.9209455274977,363.68470124108717,-84.24872630182654,-2209.2898003244773,1731806950.8117285
280,-315.08096141694114,698.6413609725423,195.1255402881652,-1726.0947260493413,1731806950.8117285
281,-361.889549262356,364.06991093652323,504.1403839769773,-1343.4113330333494,1731806950.8273675
282,-49.5050557134673,635.1958281742409,719.2650392781943,-1356.2204903815873,1731806950.8273675
283,-176.156767712906,504.8790142182261,504.916413217783,-1507.4657844896428,1731806950.8280027
284,114.27264314610511,612.195443446748,324.16704835928977,-1478.8892089282162,1731806950.8280027
285,574.8843315388076,982.3539115111344,625.9227462341078,-1373.6689936248586,1731806950.8416464
286,319.942831359338,892.1662240796722,654.7386753926985,-1427.4599746875465,1731806950.8416464
287,602.7540660086088,1018.0063777887262,486.9592835805379,-1339.796719726175,1731806950.8572755
288,492.6925502126105,823.0379132987,238.81692152051255,-1672.9918865785003,1731806950.8572755
289,67.00965745607391,484.992096203845,57.32705647079274,-2070.6479690670967,1731806950.857992
290,405.6613383437507,820.4162434297614,335.86732537066564,-1592.8944492274895,1731806950.857992
291,695.0398373152129,1025.160806403961,495.26560138212517,-1380.5279701435938,1731806950.8716931
292,486.2412227890454,967.5738268862478,733.8338195555843,-1385.3487011864781,1731806950.8716931
293,378.6854399633594,848.147601601202,522.9969595535658,-1512.456680980511,1731806950.8873913
294,-2.9620007649064064,471.3769904151559,142.05262001696974,-1695.8034063582309,1731806950.8873913
295,-179.51519787311554,339.7923503741622,184.84081541001797,-1870.9167419834994,1731806950.8881495
296,-462.1543971244246,176.83368960488588,130.69828375149518,-1999.872232355643,1731806950.8881495
297,-801.6082865525968,-154.0221698251553,-186.87719093589112,-2070.569431168027,1731806950.9015388
298,-570.115959095303,66.20183906564489,196.45133482245728,-1782.7803896777332,1731806950.9015388
299,-215.6201920453459,473.6658091880381,649.0184984104708,-1529.920143823605,1731806950.9172795
300,214.16911086253822,-13.637545188423246,206.0778373084031,-1751.4213285492733,1731806950.9172795
301,626.0929116820917,303.9360595489852,509.24160751653835,-1386.9231990678236,1731806950.917977
302,1114.6678320434876,-133.20588667178527,203.58706393791363,-942.5314567829482,1731806950.917977
303,1136.2470547878183,4.721623694058508,386.4906111708842,-692.1862936490215,1731806950.931612
304,922.0685941753909,-169.47730639204383,325.17308144737035,-555.7921422650106,1731806950.931612
305,1393.0136261456646,137.14774122508243,497.41978375660256,-566.3349202401005,1731806950.9475384
306,1104.8879936593585,-6.071727578062564,498.3248395458795,-656.6946430695243,1731806950.9475384
307,735.3241696879268,-369.01592862792313,115.34599443338811,-779.0249006701633,1731806950.9481392
308,571.5539506282657,-655.7540582306683,-289.5916732689366,-1250.8544189799577,1731806950.9481392
309,954.0204294468276,-234.07472837669775,181.13644450390711,-990.0730650196783,1731806950.9617436
310,1389.801052083727,-675.7213840940967,-220.61669838614762,-1174.5903790835291,1731806950.9617436
311,1505.4312789137475,-767.6032462054864,-539.8283793041483,-1419.8455383777618,1731806950.9774313
312,1936.7932097529992,-299.65387409972027,-951.8868165221065,-1116.990309915971,1731806950.9774313
313,2000.6520014964044,-83.22960356390104,-663.9033002341166,-753.6515494207852,1731806950.97821
314,2446.0853059189394,226.7594840633683,-515.2983754947782,-384.59074199339375,1731806950.97821
315,2104.254710068926,-121.46634071087465,-792.7091946080327,91.24233921896666,1731806950.9916992
316,1896.6266842288896,-154.6130740181543,-644.7998912604526,156.57091164495796,1731806950.9916992
317,2356.4623433807865,213.6062559192069,-409.17123445216566,-323.0581680224277,1731806951.0073936
318,2295.68522920087,82.53024227218702,-581.1617536144331,-585.1840160167776,1731806951.0073936
319,1846.4933253228664,-278.961007644888,-786.6355970799923,-1008.4509334019385,1731806951.007965
320,2073.684767831117,-22.36647168500349,-623.2131887162104,-605.7646854729392,1731806951.007965
321,2338.222851296887,143.95061924448237,-540.7932734927163,-462.4891181704588,1731806951.0215309
322,1882.1944102998823,-259.16571717942134,-814.0789829548448,-7.704193908721209,1731806951.0215309
323,1693.449139336124,-441.3025849214755,-1096.1048386134207,-202.78111549746245,1731806951.0537496
324,2126.1144253099337,-101.65235074562952,-901.4841848192737,217.81551331933588,1731806951.0537496
325,1756.8367036851123,-443.3857091967948,-1171.504961620085,697.4782520863228,1731806951.0544555
326,1395.3192744683474,-746.2652470082976,-1437.5427449680865,355.05301214335486,1731806951.0544555
327,998.9889865140431,-1114.022699301131,-1814.4367728526704,236.9974601920694,1731806951.05522
328,1090.39588133106,-1022.6382438838482,-1659.0252301939763,289.11670597456396,1731806951.05522
329,1435.9308480871841,-618.5327039216645,-1217.756304372102,521.7777521680109,1731806951.056069
330,1804.565306919627,-173.8810385898687,-786.4373823823407,208.3909654309973,1731806951.056069
331,1352.0953807304613,-544.342438550666,-957.5920339045115,62.802270005922765,1731806951.0668468
332,1577.4299629107118,-407.8865788173862,-962.506262446288,-170.10747953457758,1731806951.0668468
333,1580.3882237756625,-283.5610845903866,-758.019752569031,103.72051542112604,1731806951.0818388
334,1282.6566582531668,-594.3000221587718,-1031.8346578748897,53.25991526897997,1731806951.0818388
335,870.942291831132,-1061.7949964199215,-1502.037319703959,336.5031083631329,1731806951.097554
336,625.7768901358359,-1115.0324722891673,-1396.9498708490282,355.86831033369526,1731806951.097554
337,307.89848355203867,-1399.2106403722428,-1640.7782583101653,386.0642625759356,1731806951.098192
338,153.2237011846155,-1692.7591277942993,-2055.3199890987016,872.956227957271,1731806951.098192
339,560.0705878143199,-2141.5284229773097,-2385.1043671914376,1280.2332030818798,1731806951.111598
340,130.99747574795038,-2415.3508080830798,-2525.715255775489,1370.0431606178172,1731806951.111598
341,244.65303540136665,-2490.029130398296,-2795.6986335767433,1168.417674206663,1731806951.127398
342,680.7795987841673,-2007.8980576605536,-3205.82354251761,1477.914964989759,1731806951.127398
343,801.4325112546794,-1725.6478080046363,-2783.0203727269545,995.215427458752,1731806951.1282284
344,1187.423845781479,-1513.8535336139612,-2814.495370754041,1208.0905329366215,1731806951.1282284
345,751.1345967506059,-1952.6223363154568,-3199.802303588949,1563.6110325744376,1731806951.141651
346,618.2896104245447,-1882.1551413503475,-2917.4735160339624,1757.2817517798394,1731806951.141651
347,905.0763587267138,-1725.9694394008256,-3034.0461976528168,1929.7547180363908,1731806951.1573699
348,820.3975439299829,-1852.0265073073097,-3137.7012648247182,1713.3940257998183,1731806951.1573699
349,357.28199251694605,-2227.6097002574243,-3429.499479067512,2199.4482535910793,1731806951.1580713
350,513.950141560752,-2071.3043215093203,-3419.8542770817876,2459.427399010863,1731806951.1580713
351,776.5210376498289,-1889.0515168686397,-3275.5876362910494,2644.3130932203494,1731806951.1717927
352,422.6965826419182,-2104.701628113631,-3302.7804488688707,2360.3237900850363,1731806951.1717927
353,244.06774105830118,-2303.4810506585054,-3605.12518098671,2147.7927554030903,1731806951.1876004
354,-241.8219311349094,-1867.2329405271448,-3255.6352700274438,1736.506607525982,1731806951.1876004
355,-582.2650241013616,-2184.253040071111,-3510.4645732082427,1270.4514947477728,1731806951.1883855
356,-990.0824147695675,-2487.5626663775183,-3800.965042166412,922.0124956760556,1731806951.1883855
357,-521.5814074203372,-2067.040835559834,-3502.4088287036866,521.2878252738155,1731806951.2017846
358,-392.39778315089643,-1888.4718323755078,-3129.537063221447,759.1566821555607,1731806951.2017846
359,16.042300859931856,-1458.3328488217667,-2694.079941930715,1004.6044462975115,1731806951.2173948
360,398.903339123819,-1028.4949272144586,-2265.3340711104684,702.613134725485,1731806951.2173948
361,650.3966515441425,-873.7827458474785,-2174.5031208866276,847.2425458119251,1731806951.2180145
362,1059.9063469422981,-418.34707899345085,-2646.2989800968207,1109.007493460551,1731806951.2180145
363,1077.1996443374082,-286.6465020538308,-2458.608360920567,1377.5884087784216,1731806951.2316177
364,716.9070323561318,-667.55344259087,-2858.4130159337074,1213.8574586682953,1731806951.2316177
365,1166.3252001814544,-352.54353927308694,-2637.6523313992657,1235.9883166560903,1731806951.2473269
366,789.5265397457406,-585.3261322150938,-2825.514985973481,979.9809449892491,1731806951.2473269
367,385.59677508147433,-982.7858699560165,-3248.084412016906,830.9964204044081,1731806951.248067
368,225.54775647772476,-1293.5715562738478,-3677.776477525942,1310.5731414724141,1731806951.248067
369,666.5474095027894,-1729.5915325079113,-4001.7677505873144,1745.7422904665582,1731806951.2616775
370,290.4200611091219,-1919.1614514118992,-4010.139516638126,1961.5644371095113,1731806951.2616775
371,467.3547280128114,-1935.8040062147193,-4201.315722573083,1854.6855761758052,1731806951.2774737
372,941.2505410481244,-2348.0905773299746,-4514.868934858125,2282.4310237579048,1731806951.2774737
373,1064.9888709820807,-2088.6424977038987,-4141.836353677791,2738.463204654865,1731806951.2780488
374,1439.6146495435387,-1907.7584964470007,-4195.930266636889,2924.4783486509696,1731806951.2780488
375,1852.7296084989794,-1562.1973503911868,-3916.77104429435,2974.983827602584,1731806951.2916481
376,1654.2979966499843,-1555.996596264653,-3740.7040341803804,3081.791630437132,1731806951.2916481
377,2066.251716669183,-1286.4096478587016,-3668.673561033793,3457.247666788753,1731806951.3073738
378,1951.7845987253822,-1463.0526025658473,-3884.809859273024,3141.252299832646,1731806951.3073738
379,2378.995240613818,-1934.5268303798512,-4326.2078116433695,3488.788113065064,1731806951.308081
380,2466.2396267801523,-2013.2629441469908,-4709.293243904598,3386.6065664757043,1731806951.308081
381,2376.7737400401384,-2348.1635053791106,-4380.744902747218,3792.608235715423,1731806951.3218656
382,2855.557602317538,-2674.312700714916,-4514.689419660252,3395.0830497252755,1731806951.3218656
383,3022.600233838428,-2378.127583824098,-4074.2376619786955,2924.6354244491085,1731806951.3373516
384,2882.6176484469324,-2399.0728935259394,-3963.9891511849128,3259.214354285039,1731806951.3373516
385,2691.258187414147,-2555.0155019783415,-4007.293452771846,3003.846505510621,1731806951.3379493
386,2435.090000049211,-2703.7363636163063,-4084.746780854184,2865.5898839486763,1731806951.3379493
387,2016.2492542616092,-3169.2248815512285,-3636.710506062489,2631.8293071682565,1731806951.3516343
388,2104.3238982181065,-3060.70794443693,-3446.5665125153027,2736.2959326305427,1731806951.3516343
389,2268.5260757226497,-2963.079726043623,-3542.543565078173,2471.357679869514,1731806951.367344
390,2400.85121595487,-2923.2759708152153,-3729.4375855638646,2548.919465050567,1731806951.367344
391,2467.9038822604343,-3028.5167555683292,-4055.624179899227,2302.882666665595,1731806951.367998
392,2529.5767024797387,-3021.5437121009454,-4230.84597262321,1891.3964341408573,1731806951.367998
393,2318.9193576755933,-3222.8849661154673,-4576.543625027407,1642.6893471875228,1731806951.3815925
394,2726.6619503446855,-2998.0720999790356,-4595.863948198501,1875.262505732011,1731806951.3815925
395,2873.395055156201,-3074.8896450689062,-4960.130203882698,2276.615479326807,1731806951.4136937
396,3220.3624035953544,-2641.111738858279,-4632.46447911486,2552.2554558110423,1731806951.4136937
397,2749.4211115250364,-2167.924636864569,-4275.704202641733,2206.3951177587733,1731806951.4144433
398,2533.142697087489,-2546.892439274583,-3853.7331605912186,2538.0251364796422,1731806951.4144433
399,-4000.9318829472177,-5024.134851724375,-7280.2220201944,-6963.764775593765,1731806951.4151976
400,-3519.625458149705,-5505.772257667966,-6806.081243711989,-7223.521396966185,1731806951.4158995
401,-3341.2584095629863,-5496.347709779628,-6995.948484662455,-7323.339326783549,1731806951.4158995
402,-2959.352915737778,-5133.986933122855,-6612.771424852312,-7192.949584778398,1731806951.4267237
403,-2585.4227585680783,-5469.139937601984,-6693.102605950553,-7212.155841000844,1731806951.4267237
404,-2483.514224675484,-5625.452796149999,-6352.466908136383,-7557.554301408585,1731806951.442473
405,-2925.749914635904,-6072.886947048828,-6733.214902925305,-7197.183151528239,1731806951.442473
406,-3101.4092756547034,-6142.778197420761,-6731.96951624006,-7250.300950598903,1731806951.4431193
407,-2640.9714926099405,-5776.469956360757,-6531.323883617297,-6763.313617768697,1731806951.4431193
408,-2685.4164636833593,-5885.1215298734605,-6664.849531735294,-6995.673602015711,1731806951.4565256
409,-2965.187159668654,-6023.29587363638,-6598.15215592552,-7142.03084688168,1731806951.4565256
410,-2702.3619503825903,-5797.069325316697,-6522.793171818368,-6802.373132905923,1731806951.47254
411,-2396.46057340689,-5554.652750088833,-6315.849547670223,-6546.201205641031,1731806951.47254
412,-2715.690953824669,-5774.027801689692,-6332.996988967061,-6827.460381808691,1731806951.4729812
413,-2575.2913695881143,-5708.400037267245,-6331.108339489438,-6693.115695600398,1731806951.4729812
414,-3049.407836720813,-6126.167431767564,-6790.66163619468,-6928.959396656137,1731806951.486602
415,-3089.34248844767,-6114.319428707939,-6569.442813915666,-6938.716795640532,1731806951.486602
416,-3411.710644928273,-6317.261359903496,-6709.6554031544365,-7147.05540247215,1731806951.502457
417,-3719.809213127941,-6654.377811859362,-7103.981104732491,-7248.374902121723,1731806951.502457
418,-3619.4228185173124,-6477.203791358508,-6809.10869272612,-7056.798526891507,1731806951.503146
419,-4101.795114802197,-6002.660975630861,-7251.333162986673,-6742.181313069072,1731806951.503146
420,-3613.2220643907785,-6452.774764847942,-7693.892354293261,-6942.24165134877,1731806951.5166297
421,-4085.977207939606,-6872.744960422162,-7993.067521198653,-7205.106129584368,1731806951.5166297
422,-3643.3394787339494,-6429.759420520626,-7510.498880166095,-6952.8928864225745,1731806951.5324683
423,-3543.3682130184025,-6239.682745172642,-7278.89435571013,-6628.86047446169,1731806951.5324683
424,-3779.4288282715715,-6548.678889361676,-7552.630723116919,-6692.451863358263,1731806951.533188
425,-4151.115045467857,-6935.26486798143,-7913.635786039755,-6285.619936328381,1731806951.533188
426,-4346.932467247825,-6974.275764419232,-7817.415639979765,-6261.142291118391,1731806951.5466266
427,-4575.550681589171,-7122.833940409124,-7901.755993830506,-6083.040775428526,1731806951.5466266
428,-4682.825971918181,-7416.992031523958,-8287.900664255489,-6552.506676966324,1731806951.562719
429,-5138.244809222408,-7762.263335333206,-8519.460309911985,-7001.178734750487,1731806951.562719
430,-4712.191666370258,-7287.752308755182,-8054.224235224072,-7286.950100214686,1731806951.5631986
431,-4481.394960304722,-7210.792647466995,-8099.061895792838,-7265.883243764285,1731806951.5631986
432,-4049.819855167996,-6790.781312993262,-7672.090607501566,-7072.487407205626,1731806951.57675
433,-3869.9082278995775,-6426.013910715003,-8135.570799160283,-7468.48858396383,1731806951.57675
434,-3509.194877173286,-6255.777404631954,-8151.338217373472,-7290.379588474054,1731806951.6088
435,-3840.8155461442657,-6584.64176733559,-8468.949221110437,-6828.784306393005,1731806951.6088
436,-4015.0350456801243,-6661.698666022625,-8454.980694775935,-6884.2320631360635,1731806951.6095529
437,-3644.0968084749766,-6418.182560207788,-8363.79819395626,-6562.103260252625,1731806951.6095529
438,-3635.4127607778646,-6497.086969472934,-8424.758563234005,-6715.738350432366,1731806951.6102536
439,-3912.064380200114,-6623.379651076626,-8380.92693575332,-6868.71147831995,1731806951.6102536
440,-3759.2408483107574,-6527.331540414598,-8436.677624392789,-6726.475603205152,1731806951.6111307
441,-3485.1622800580226,-6359.3801132044755,-8315.919994723517,-6563.00083624199,1731806951.6111307
442,-3560.730698562693,-6241.3189514032565,-7903.936355504673,-6360.810624937527,1731806951.6221428
443,-3863.378362576943,-6661.178819928784,-7617.102858453058,-5986.927216517273,1731806951.6221428
444,-3507.205250396859,-6398.566784940194,-7443.762235406786,-5647.056328244042,1731806951.6366668
445,-3753.4776624790393,-6683.992209658492,-7667.752323552966,-6065.184623090085,1731806951.6366668
446,-4046.4277659081854,-6940.998134613503,-7956.225766735151,-6409.52095191041,1731806951.6524348
447,-3654.8303213478066,-6616.902144353371,-7728.94830652792,-5976.455496641342,1731806951.6524348
448,-3674.6480512130074,-6646.380035804119,-7730.5228044092655,-6074.639090178069,1731806951.652998
449,-4121.139747323003,-7102.056926205289,-8190.448221160099,-5713.101091511548,1731806951.652998
450,-3809.3293284173124,-6830.024083228316,-7972.01936424803,-5310.553219880909,1731806951.666876
451,-3443.2978399540298,-6427.30043629976,-7485.338703214191,-5790.773203741293,1731806951.666876
452,-2991.785328153521,-6014.398651641794,-7102.808646096382,-5598.005670375191,1731806951.6825137
453,-2875.1490682354197,-5868.879144365899,-6932.190670217853,-5367.945724600926,1731806951.6825137
454,-2837.5705534806475,-6252.634018719196,-6930.262751790695,-5142.14739482617,1731806951.683355
455,-3201.492738368921,-5866.947486038785,-6920.7877152529545,-5325.877459949348,1731806951.683355
456,-3316.647997904569,-5829.683122880291,-6760.435764752794,-5254.890418890398,1731806951.696876
457,-3485.506350853946,-5966.793465105817,-6807.979242939502,-5099.69953032909,1731806951.696876
458,-3546.8294904273935,-6142.535103923641,-7055.29508710932,-5427.127771449741,1731806951.7126684
459,-3788.722479661461,-6250.240482747555,-6964.105106489733,-5530.711780522484,1731806951.7126684
460,-3324.944965956267,-6666.949485560413,-7351.20906125335,-5721.583184611052,1731806951.713248
461,-3019.380179976579,-6534.070840134751,-7256.122104879934,-5608.324054352939,1731806951.713248
462,-3269.500949113164,-6711.996580526698,-7265.77478666557,-5836.487870849669,1731806951.7267668
463,-2998.2160861273296,-6232.750840604771,-7584.719064736739,-6098.088262900244,1731806951.7267668
464,-2530.7846901654266,-5956.043122683186,-7437.314647883177,-5730.026008761022,1731806951.74247
465,-2827.732746647205,-6219.49289526185,-7607.128545271233,-6125.322214377578,1731806951.74247
466,-2943.0525617809035,-6222.155704030301,-7438.926544764079,-6111.585561840329,1731806951.7431235
467,-3301.3480671858415,-6692.53227120731,-7029.908646210097,-6284.202514245175,1731806951.7431235
468,-3307.096293417737,-6753.208408088423,-7080.386075912043,-6475.610593977384,1731806951.756858
469,-3753.9470199234784,-6956.793602076359,-6985.160743240267,-6818.062013220042,1731806951.756858
470,-3363.033977054991,-6645.132779168896,-6771.1038293763995,-7147.941758761648,1731806951.772608
471,-3835.6320448056795,-6291.917927853763,-6515.78085940145,-6769.074933650438,1731806951.772608
472,-3528.5058505944908,-5902.035227423068,-6982.299719774164,-6727.2273230962455,1731806951.7731783
473,-3546.595746680163,-5965.834180767182,-7033.483990567736,-6758.945414620452,1731806951.7731783
474,-3516.635408135131,-6041.819598116912,-7198.9652138571255,-6342.862845050171,1731806951.7874217
475,-3973.4118291232735,-6356.367623790167,-7298.012724283617,-5956.892079973128,1731806951.7874217
476,-3698.5273124300875,-6034.468824754003,-7028.049915932119,-5972.7417759853415,1731806951.8023272
477,-3561.2393249566667,-5942.452326244209,-6900.493148143403,-6116.8419912280515,1731806951.8023272
478,-3500.121879880782,-5925.282445547637,-6780.397480766289,-6296.439466900192,1731806951.8030684
479,-3266.8699294943362,-5565.8537504561245,-6302.709409175906,-6287.454357256647,1731806951.8030684
480,-3632.286204414908,-5838.071718480904,-6518.514726269059,-5987.779913707171,1731806951.81657
481,-4081.663233340718,-5510.445262662601,-6278.128916717134,-5674.245400921907,1731806951.81657
482,-4139.339970457368,-5580.224316035863,-6399.069801484235,-5299.498075611889,1731806951.83233
483,-4324.292982866056,-5648.167078530882,-6464.533010308631,-5317.995620792732,1731806951.83233
484,-4294.108250323683,-5861.477882353589,-6855.590039325412,-5096.814197513275,1731806951.833002
485,-4197.553383217659,-5876.934888870455,-6964.937234229874,-4738.683247706387,1731806951.833002
486,-3844.3965003518388,-6308.395927058533,-7294.411200626288,-4426.882178550586,1731806951.8467689
487,-3764.7777701951563,-6382.646030828822,-7592.277402547188,-4904.622608740348,1731806951.8467689
488,-4122.226188260131,-6010.6363122863695,-7823.021750013344,-5351.219022049103,1731806951.8624277
489,-4453.7122208327055,-5925.2600061479025,-7526.76370507339,-5603.826824656222,1731806951.8624277
490,-4513.900300769601,-5833.31082583731,-7303.719811616,-5826.393880869262,1731806951.8631008
491,-4965.16971907299,-5665.168663729448,-7381.902420189697,-5830.182399524376,1731806951.8631008
492,-5105.2850709129125,-5619.805547216907,-7327.814117080532,-6271.969301490113,1731806951.8766973
493,-4945.0602770112455,-5184.6794070722535,-7598.951254018117,-6553.619297203142,1731806951.8766973
494,-4767.553405414335,-5286.114843620453,-7904.88442014344,-6245.855450049508,1731806951.892286
495,-4303.02230186807,-4816.101046739146,-8257.811299161986,-6137.976165877655,1731806951.892286
496,-4787.2982072304,-4841.509927038103,-7972.924420037307,-6202.1939880168065,1731806951.893082
497,-4432.983825328294,-4538.252659331076,-7633.042312064208,-6100.494888521731,1731806951.893082
498,-4459.2117437175475,-4713.908280449919,-7771.153077527881,-6555.771609627642,1731806951.906751
499,-4140.705033941194,-4987.82603300456,-7724.161234584637,-7016.130854773335,1731806951.906751
500,-4367.288742706645,-5227.222639018204,-7902.788206218276,-6646.438004253432,1731806951.922393
501,-4790.34435574431,-5687.325701016933,-8355.029998510145,-7061.392993987072,1731806951.922393
502,-4331.0752914357,-6031.10478474386,-8396.254915721714,-6616.253271711059,1731806951.9230838
503,-4353.877461465541,-5840.508263302036,-8000.801634307019,-6183.154157342389,1731806951.9230838
504,-4145.692190532107,-5825.672080177814,-8081.319810403045,-6623.031840380747,1731806951.9368632
505,-4631.164863880258,-6190.2786667579785,-8230.377263037022,-6303.2984434189275,1731806951.9368632
506,-4496.118946430273,-5946.315642898437,-8022.272399952635,-6387.771563718095,1731806951.952571
507,-4683.059715665411,-5986.1175281768665,-8080.912161307875,-6672.656572892796,1731806951.952571
508,-4658.529711856041,-6208.813610938378,-8332.839302123059,-6260.009101431817,1731806951.9532132
509,-4662.187334012706,-6147.155750318896,-8255.948828984052,-6668.020966897719,1731806951.9532132
510,-5032.102708579972,-6389.443298998289,-8461.869590494316,-6303.866908212192,1731806951.966618
511,-5434.525293562096,-5931.088640228845,-8023.441118688788,-6773.551593897399,1731806951.966618
512,-5478.622453939635,-6003.852133766748,-8166.9709991882555,-6419.407377443276,1731806951.9824474
513,-5722.740683647338,-6044.239313388243,-8121.284381329548,-6342.17844335828,1731806951.9824474
514,-5490.593873697799,-5960.828324676491,-8097.569675710518,-6696.962182704825,1731806951.983081
515,-5394.053966191597,-5805.590687365737,-7964.146874841303,-7064.366214451846,1731806951.983081
516,-5120.048325987998,-5370.698290968314,-8440.340856399387,-6881.647792266682,1731806951.9966817
517,-4723.095344691072,-4915.440269362181,-8819.202071660664,-6504.112371539697,1731806951.9966817
518,-5124.577344834339,-4539.043648171704,-8618.614407487214,-6615.381875021383,1731806952.012792
519,-5124.167825789191,-4301.498292636126,-8288.996454942506,-6772.263198362663,1731806952.012792
520,-5276.96330842888,-4337.14888896374,-8156.880749107804,-7044.769138684031,1731806952.0132148
521,-4882.628257100936,-4131.065441805404,-8109.484996969346,-6950.5049603008665,1731806952.0132148
522,-4821.684717372991,-4005.3842338444665,-7926.923650582321,-7272.173755489755,1731806952.0269396
523,-4778.634728983045,-3667.0392247531563,-8302.145943186712,-7603.171731118113,1731806952.0269396
524,-4833.575729282107,-4059.745549650397,-8014.77951039141,-7665.45789493015,1731806952.042565
525,-4587.480962447822,-3767.0778086679056,-7642.728652949445,-7806.66903745709,1731806952.042565
526,-4284.4536985880695,-4162.314175885171,-7914.937271224335,-7431.944151546806,1731806952.0433156
527,-4126.81691545574,-4130.457708062604,-7942.494724047836,-7652.4430430843495,1731806952.0433156
528,-4402.077292094473,-4498.306787904352,-8367.481995412614,-7439.259395860136,1731806952.0569718
529,-4119.914930087514,-4922.332904980518,-8526.05001363391,-7129.4965721801855,1731806952.0569718
530,-4506.22228616057,-5293.4899263330735,-8909.156015344895,-6911.946591757704,1731806952.0723748
531,-4168.049312467221,-5094.059761195909,-8859.295669135638,-6822.716318714898,1731806952.0723748
532,-3909.1678276844323,-4670.532920763828,-9193.72500297334,-6701.09664210584,1731806952.073306
533,-3980.9140684343874,-4609.191081690602,-9011.17674623616,-6451.693933760747,1731806952.073306
534,-3765.398593587801,-4491.11496028956,-8926.898100734688,-6735.8272230443545,1731806952.0867012
535,-4190.572859950364,-4783.548957524821,-8957.191290375777,-6323.351786981337,1731806952.0867012
536,-3932.7796860546805,-4353.727865467314,-9444.264640904963,-6166.371356291231,1731806952.1026158
537,-3649.5121836108156,-4088.5203399094753,-9090.10359490104,-5985.924923329148,1731806952.1026158
538,-3634.3917680899613,-4080.2215019077994,-8985.838924036361,-6226.097558583599,1731806952.1031733
539,-3562.2285284949467,-3853.9182856390253,-8623.706281276885,-6380.43574995501,1731806952.1031733
540,-3741.117293125484,-3906.8958384613506,-8551.357916634064,-6647.743229337968,1731806952.116674
541,-4001.5022176904604,-4269.701663212851,-8793.724003212526,-6882.723013503943,1731806952.116674
542,-4018.7356766862795,-4201.929066165816,-8736.471744740847,-7334.443089751992,1731806952.1326475
543,-4081.988604636863,-4070.321986725088,-8422.04713576613,-6955.045198847074,1731806952.1326475
544,-3826.385142165236,-3973.3276813742705,-8352.451337490696,-7237.177641654387,1731806952.1332593
545,-3622.8205176270567,-3749.1300287805498,-8114.771345556714,-7516.7127239424735,1731806952.1332593
546,-3277.7455585654825,-4172.4231254654005,-8412.32900573127,-7174.872778342571,1731806952.1468785
547,-2911.605613003485,-3813.845257613808,-8891.015630609822,-6834.351147477049,1731806952.1468785
548,-3322.3214261373505,-3437.3214798248373,-8722.822979852557,-6994.246830182616,1731806952.1625717
549,-3303.2198871136643,-3180.5717380167916,-8331.377001240384,-7130.289430970792,1731806952.1625717
550,-3456.479117347859,-3279.523880994413,-8305.822264843155,-7432.9165255352855,1731806952.163149
551,-3239.1423112228513,-3395.2064664238133,-8696.466034914833,-7791.726267184131,1731806952.163149
552,-3155.2582251667045,-3123.964612287469,-8313.689144399948,-7943.667182683945,1731806952.1768277
553,-3111.0413879905827,-2856.8796569518745,-8797.690167115536,-8362.683703769464,1731806952.1768277
554,-3143.78234215267,-3184.2162705236115,-8392.898355511483,-8282.713423016947,1731806952.1926389
555,-2953.079233562108,-2933.5962247429416,-8131.690652956255,-8557.113622665871,1731806952.1926389
556,-2515.209876799956,-3220.5811877427623,-8228.239910212345,-9002.887257984374,1731806952.193394
557,-2345.5605350099504,-3214.773123111576,-8297.291553044226,-9194.91429115925,1731806952.193394
558,-2589.7984415162355,-3555.3471125764772,-8675.971383157652,-8957.73544581933,1731806952.2067204
559,-2418.6250904942863,-4042.7832334013656,-8953.625295768026,-8770.0766157927,1731806952.2067204
560,-2776.468068004586,-4426.281924607698,-9350.213636819273,-8474.358986396343,1731806952.2224631
561,-2418.6793190436438,-4295.751936354209,-9389.546164653264,-8504.483880539425,1731806952.2224631
562,-2264.5860911193304,-3946.2414559451863,-9871.263978445902,-8557.295007813722,1731806952.2231617
563,-2442.9755791057833,-3990.14414152503,-9829.418237841688,-8434.76840546541,1731806952.2231617
564,-2337.989107549656,-4128.327835037839,-10100.136505984236,-8064.7576634492725,1731806952.2367413
565,-2050.22811530903,-3750.2145997677,-9659.211650958285,-8172.26856747549,1731806952.2367413
566,-2001.080220041331,-3634.2197326919995,-9668.748395845294,-8504.525019438937,1731806952.252606
567,-1907.3471074518748,-3666.137908863835,-9796.815659977961,-8743.061448462773,1731806952.252606
568,-2244.3831515586935,-4093.8440874964,-9318.301070497371,-8634.542641398497,1731806952.253418
569,-2435.6528549925424,-4196.478161980398,-9523.397184067406,-8371.057339770254,1731806952.253418
570,-2750.7712154090405,-4483.685649027582,-9765.172366452869,-7946.485197300557,1731806952.2668383
571,-3202.61283840565,-4070.228489226196,-9393.759161953349,-7548.417725816835,1731806952.2668383
572,-3376.043219050858,-4207.879246995319,-9637.81755326176,-7344.950338677503,1731806952.2825544
573,-3510.859132653568,-4149.570466786157,-9466.518915591296,-7086.661628037691,1731806952.2825544
574,-3223.9564474527724,-4074.570513074752,-9449.390173794236,-7397.9765101992525,1731806952.2832987
575,-3138.0490755205974,-4044.597084879875,-9518.481085575651,-7034.819134851918,1731806952.2832987
576,-2752.7215732359327,-4325.231697754934,-9618.141939594876,-7472.742720163427,1731806952.2968924
577,-3224.530522095971,-3855.081394525245,-10004.617591165937,-6986.634263822809,1731806952.2968924
578,-3694.381633329205,-3562.742764738854,-9949.291381171439,-7285.822520378046,1731806952.3126304
579,-3613.710121334996,-3274.3085905062035,-9527.54099321831,-7415.750384738669,1731806952.3126304
580,-3686.060355927795,-3227.96749015525,-9338.922878853045,-7516.991346489172,1731806952.3131795
581,-3354.8099370524287,-3188.7733386196196,-9527.814005915076,-7674.34389722487,1731806952.3131795
582,-3365.659386823885,-3083.6428809151985,-9402.518007649574,-8092.21413897397,1731806952.3268175
583,-3241.655523993075,-2712.7196033098735,-9777.557045156136,-8368.489898450673,1731806952.3268175
584,-3224.5118225961924,-3046.331769007258,-9404.692759473808,-8304.758263305761,1731806952.3426068
585,-3002.550630175974,-2807.3203726890497,-9134.29612272745,-8599.862549109384,1731806952.3426068
586,-2671.309561050497,-3192.7544621224515,-9435.597422757652,-8240.295477719512,1731806952.3430536
587,-2418.6718392437324,-3168.519910409581,-9453.232920998707,-8373.131114295684,1731806952.3430536
588,-2723.6943397298455,-3608.365804298315,-9064.39365265565,-8340.659432930406,1731806952.3567326
589,-2582.578564651776,-3203.890014240518,-9447.654860214796,-8282.539517669007,1731806952.3567326
590,-2812.2776100803167,-3404.3804410151206,-9618.413082341664,-8747.287535412703,1731806952.3724573
591,-2368.9573491327465,-3187.032415190246,-9534.50094703585,-8648.183926486876,1731806952.3724573
592,-2114.945214092266,-2701.5877910917625,-9829.474336341023,-8516.619855895638,1731806952.3730445
593,-2154.019688829314,-2600.0158481951803,-9649.917999568395,-8208.022011051886,1731806952.3730445
594,-1965.9251604578458,-2709.6790646458976,-9889.18370908359,-7806.727005906403,1731806952.3868213
595,-2431.688561039511,-2966.045466708485,-9895.313405110966,-7397.25844940776,1731806952.3868213
596,-2155.053771167062,-2541.561211887747,-9447.409896767698,-7280.078034046106,1731806952.4026637
597,-1804.6326251188293,-2258.0468760468066,-9109.248142774217,-7037.627799718641,1731806952.4026637
598,-1955.1598584353924,-2487.725352025591,-9330.73623785004,-6648.575357078109,1731806952.4031825
599,-2021.2588502522558,-2414.8216122393496,-9293.739277538378,-7121.530585274566,1731806952.4031825
600,-2203.0292077986524,-1684.6248453906737,-1689.0641066380776,-1763.3123404583894,1731806952.4178832
601,-2519.348076100927,-2126.0957258101553,-2091.6811664178967,-2178.308469091542,1731806952.4181428
602,-2532.976271539461,-1972.0398968853988,-1907.5453221495263,-2528.9427894372493,1731806952.4181428
603,-2483.1346248299815,-1701.0280465963297,-1432.4433913785033,-2919.057363665197,1731806952.432048
604,-2180.3635441171937,-1568.803883662913,-1278.0678010075353,-3105.669021704234,1731806952.432048
605,-2008.6703470014036,-1430.8034452479333,-1208.7319257790223,-3576.301772028208,1731806952.4474397
606,-2497.6173874083906,-1623.6214672634378,-1175.8282859688625,-3874.412937396206,1731806952.4474397
607,-2132.442336034961,-1379.5817754548043,-893.2938039163128,-3688.7231646962464,1731806952.44804
608,-2525.5880991769955,-928.1291020535864,-583.3926039380021,-3749.9415870709345,1731806952.44804
609,-2419.257133586798,-618.9908416662365,-179.4890185734257,-3850.9263656744733,1731806952.461706
610,-2550.439734382555,-636.1887716124766,-40.66767211817205,-4006.3996166824363,1731806952.461706
611,-2383.5167796602473,-859.3560817684047,363.8305573393591,-3563.877824375406,1731806952.4776373
612,-2428.1599654313177,-778.5200141761452,441.405432170257,-4029.5664269579574,1731806952.4776373
613,-2466.4939399771392,-682.9618304083124,640.2783522140235,-3691.213938066736,1731806952.4781873
614,-2392.9301078487188,-908.1655160901137,222.59697541268542,-3471.019848375581,1731806952.4781873
0,-2286.008238065522,-787.8959433650598,242.88406272232533,-3007.1207879218273,1731806952.4917352
1,-1821.8249452151358,-1007.6524647613987,212.23932248540223,-3368.290406442713,1731806952.4917352
2,-1790.9782503806055,-1247.172487473581,-205.71880691265687,-2898.7422271058895,1731806952.5073864
3,-2046.3647986548021,-1577.0728024649434,-591.8447778378613,-2674.9821428069845,1731806952.5073864
4,-1912.4632905912586,-1154.2602829243988,-1027.2701099789701,-2626.8814195268787,1731806952.508114
5,-2189.3000350613147,-1475.5419984678738,-1344.1911021741107,-2247.704182719346,1731806952.508114
6,-1731.3118864875287,-1243.4288476179354,-1233.4788437858224,-2136.965745031368,1731806952.5216665
7,-1470.9755806219764,-755.1942581525072,-1528.7402053875849,-1984.7200276851654,1731806952.5216665
8,-1628.8517173514701,-791.0972977271304,-1554.8559267781675,-1879.363306033425,1731806952.5373874
9,-1488.9308403092436,-946.308755738195,-1866.9861071300693,-1557.5897936457768,1731806952.5373874
10,-1289.4165274230763,-689.3570593325421,-1603.310070604086,-1827.9396816426888,1731806952.5381436
11,-936.1324879587628,-1151.952764651738,-1999.2794582126662,-1561.7317328467034,1731806952.5381436
12,-634.6217535310425,-927.6260855095461,-1759.5443912530318,-1450.3126333667897,1731806952.5517287
13,-704.8308953992091,-1010.3227533297613,-1742.138896859251,-1825.260043324437,1731806952.5517287
14,-721.6978441993706,-890.6328650978394,-1669.7886622664519,-2226.192278174218,1731806952.5672872
15,-1093.038120649755,-1176.5538265602663,-1914.8998354123905,-1785.6320633939467,1731806952.5672872
16,-627.0690255705267,-926.5190751226619,-1758.444860666059,-1630.553371831309,1731806952.5679755
17,-583.538460036274,-825.2631537723355,-1695.018027367536,-2081.6002660873346,1731806952.5679755
18,-626.3977135284804,-702.7963898233138,-1484.0951496665366,-1745.562775268685,1731806952.5815964
19,-379.39976085489616,-670.6781290038489,-1527.3040838046,-2160.304590704851,1731806952.5815964
20,-364.5130890812725,-705.3881404926069,-1708.924845352769,-1883.1462148386054,1731806952.5972977
21,-20.38058480853215,-1170.2689246847294,-2098.2933095395565,-1616.2688239505515,1731806952.5972977
22,346.3353053466417,-903.9730882397853,-1779.75481061358,-1424.8345649186522,1731806952.598024
23,-4.706664094235748,-1383.480621158611,-1421.2760501108132,-1435.3436837941408,1731806952.598024
24,121.47195056080818,-1035.9635074259713,-967.0034921430051,-1484.9983355058357,1731806952.611846
25,74.26132347015664,-1018.9955813270062,-798.6182365380228,-1625.8897165865637,1731806952.611846
26,320.7207305501215,-1068.882106835954,-1090.4912487799302,-1920.1113860006444,1731806952.6274364
27,426.7263248441741,-818.1087251571007,-792.2660164632834,-2130.1329478123225,1731806952.6274364
28,456.854958887212,-598.1091102636419,-451.5760900997557,-1657.8247223081999,1731806952.6284187
29,503.08012233953923,-907.449325248599,26.947849130723625,-1556.5594512079842,1731806952.6284187
30,703.9856780092232,-665.756420662161,255.58476297184825,-1845.5153414844535,1731806952.6418233
31,246.61087302817032,-809.6789906569757,316.24594025313854,-2104.922282211017,1731806952.6418233
32,255.26874142559245,-1107.4367354791611,784.0251469109207,-1749.2839757245965,1731806952.6573339
33,-9.340400139335543,-1486.0829064929858,365.2535892724991,-1572.1866231728345,1731806952.6573339
34,153.57151188049465,-1125.1395519194193,808.2092099743895,-1615.9434526544064,1731806952.6580067
35,-127.34172354126349,-1437.5651843678206,463.0744125135243,-1265.9449153011665,1731806952.6580067
36,141.04097707895562,-1443.6088626962155,236.36541709955782,-1500.4964809222147,1731806952.6718647
37,394.2901725284755,-986.2695867647417,-128.0279951831326,-1387.437435311731,1731806952.6718647
38,114.26516334619373,-1211.3442458980717,-443.63067264389247,-1554.7568194293417,1731806952.6875849
39,124.9089186200872,-1521.6904939711094,-18.763078077696264,-1503.1237606410868,1731806952.6875849
40,295.5624235481955,-1358.685084452387,114.31565199559554,-1899.1230674493127,1731806952.688347
41,485.31559755001217,-1015.9288633633405,440.6275329794735,-1876.0048758732155,1731806952.688347
42,679.577220948413,-1021.5331034469418,330.52674823394045,-2118.187707353849,1731806952.7019296
43,513.9445317108184,-1248.0812831628136,130.9320274987258,-1724.0340411737561,1731806952.7019296
44,363.686571191065,-1327.7037532194518,-18.095505935605615,-1382.8597977659665,1731806952.7177465
45,212.87323552789167,-1482.619759134017,-136.09121948760003,-1797.5903935022652,1731806952.7177465
46,593.4267555191182,-1279.0083858463913,-85.43427458778024,-1761.3432831317186,1731806952.71818
47,599.38628609851,-1133.127978224773,93.951896736864,-2092.91907330323,1731806952.71818
48,601.5741275725886,-999.1610219120048,315.4175524129532,-1742.4867075551301,1731806952.7318633
49,892.904854320921,-884.9631767650135,417.53178080311045,-2037.6751411077566,1731806952.7318633
50,1015.440806419123,-798.1507490435615,459.68232325371355,-2515.2902846490033,1731806952.7475655
51,1489.5236144522205,-1109.6170971533284,283.7574293380603,-3000.2057129037566,1731806952.7475655
52,1800.6384119661525,-900.7137654284015,491.0862631816417,-2921.8959477315657,1731806952.7482107
53,1474.5116560300812,-1384.4660847969353,898.984061698895,-2892.958471824415,1731806952.7482107
54,1608.832032888662,-1014.3375359321944,1387.749716958031,-2906.949437558651,1731806952.7616897
55,1709.5363189955242,-809.3536193608306,1828.4183888370171,-2778.2108613839373,1731806952.7616897
56,1960.7528788191266,-870.2204911396839,1505.2536336658522,-3110.205520350486,1731806952.777479
57,2080.483905950561,-592.4749509803951,1859.476388019044,-3253.858817548491,1731806952.777479
58,2164.586776154116,-295.30250050127506,1379.8211290519685,-3618.067104783375,1731806952.7781749
59,2267.19841123838,-470.7879561721347,1030.7482169377618,-3378.881803117227,1731806952.7781749
60,2527.2018660078757,-154.5887646684423,1378.3289089696482,-3547.1399021237157,1731806952.7917998
61,3015.069945277646,-397.69348148815334,1321.646985241212,-3922.8539915722795,1731806952.7917998
62,3140.7866822881624,-464.15337365074083,1148.588724641595,-4237.617061492987,1731806952.807684
63,2869.7374329995364,-808.1007528756745,785.373380844947,-4009.586011444684,1731806952.807684
64,3089.9146931408904,-371.0579140037298,377.2418385804631,-3924.1423871070147,1731806952.80805
65,2771.557579362765,-723.526655277703,-7.876229306682944,-3625.806827741675,1731806952.80805
66,3149.994315979071,-550.7844162243418,57.751535115763545,-3604.0817488990724,1731806952.8218577
67,3369.232861231547,-111.41909947991371,-342.170926745981,-3525.1418105843477,1731806952.8218577
68,3243.220672124531,-186.14604049455374,-369.1842241259292,-3422.167405204382,1731806952.8375485
69,3330.0274899960496,-392.2874561022036,-753.4271554234438,-3217.2508068322204,1731806952.8375485
70,3600.9065738366917,-20.008464762941003,-335.66350082308054,-3328.2098986175843,1731806952.838244
71,3825.9718832201324,344.4728351687081,-15.021308172028512,-3297.5707682305947,1731806952.838244
72,4011.0782315270044,367.2376061989926,-29.02536355610937,-3463.990706408862,1731806952.8519838
73,3827.3444265038706,152.61970734177157,-213.56324706971645,-3058.9090525582433,1731806952.8519838
74,3665.7321297186427,107.19488247996196,-381.04718678537756,-2712.2109769158997,1731806952.8675635
75,3532.799255743623,-37.32794145774096,-429.2937661637552,-3085.0509532485157,1731806952.8675635
76,3933.256523299031,212.60957258101553,-275.10143089061603,-2969.8882139129564,1731806952.868327
77,3925.3765540923923,270.0301265507005,-278.50099995033816,-2485.0756329069845,1731806952.868327
78,3936.0838876655325,409.999622292351,-18.69015002856031,-2093.006960952189,1731806952.8819196
79,4205.281886476092,554.292442382779,138.03409751458094,-2357.8348866645247,1731806952.8819196
80,4301.4478039867245,570.4207609416917,-2.810534816700965,-2014.7121553798206,1731806952.8976817
81,4655.685517939739,111.21714488230646,-358.3029852048494,-1715.3686929764226,1731806952.8976817
82,4974.4035320635885,373.9151975698769,-72.39511339226738,-1558.999735929072,1731806952.8981438
83,4544.857322652824,769.4189676339738,146.31610596645623,-1725.5524405557662,1731806952.8981438
84,4623.786041267682,1083.7781283594668,554.7449702774175,-1810.2013361528516,1731806952.9120264
85,4681.114967688452,1237.3720796396956,899.0214606984518,-1766.5866228695959,1731806952.9120264
86,4858.539561486337,1066.118320768699,418.75098818866536,-1281.4187513678335,1731806952.927446
87,4853.142885850277,1216.2883936394937,595.8146816408262,-1622.2582737295888,1731806952.927446
88,4971.735113445204,1521.961636717897,1058.556243058294,-1967.4342100899667,1731806952.9283984
89,5016.210003718268,1206.7273394027725,1500.6834759199992,-1888.1520709292963,1731806952.9283984
90,5184.271757977083,1442.6159192579798,1776.2561342050321,-2186.001443300396,1731806952.9418004
91,4726.728657498024,1279.8367736865766,1791.3054916267283,-2495.597841432318,1731806952.9418004
92,4835.686902807094,1149.215157884173,1527.0310711078346,-2878.946936640423,1731806952.957718
93,4445.9930673241615,1608.2037296961062,1851.6188582121395,-2936.945305153262,1731806952.957718
94,4587.43047379842,1964.4235906256363,2311.134755917825,-2984.1690218937583,1731806952.9581769
95,4331.8999393759295,1673.0049762283452,2008.5226209531538,-2583.4312618416734,1731806952.9581769
96,4686.715467872098,1797.9625135478564,2023.0109933814965,-2612.9802113915794,1731806952.9718
97,4970.807618256193,2261.5698618050665,1657.7125253095292,-2518.766521657817,1731806952.9718
98,4812.587410730775,2211.006414404139,1602.055334168952,-2403.779557620175,1731806952.9876215
99,4948.394397821743,2086.1031056339853,1337.2124488567933,-2081.6769340364262,1731806952.9876215
100,5231.0167675232515,2450.408630267717,1782.0454993364401,-2185.6872917041183,1731806952.988102
101,5591.234581505414,2939.7016114206053,1308.0019602528773,-1969.8258761116304,1731806952.988102
102,5874.359967750963,3087.940025964286,1449.8114867727272,-1956.130362473894,1731806953.0017915
103,5630.563369439449,2828.637802436482,1183.2089785314165,-1651.2481082361192,1731806953.0017915
104,5564.643892820459,2902.2857823139057,1217.5580896744505,-2100.062282218598,1731806953.0176358
105,5553.856151398271,2925.7199954362586,1389.1409597415477,-2218.604021164123,1731806953.0176358
106,5952.98575446941,3085.8475519390777,1406.8643456315622,-2225.103967287112,1731806953.018325
107,5993.501960639376,3244.032230414916,1595.3496935484,-2559.267768227961,1731806953.018325
108,6074.433395680506,3441.270814178046,1902.9377654041164,-2077.606052934658,1731806953.048067
109,6328.413741571363,3522.953969110269,1965.3940946641378,-2424.1470527788624,1731806953.048067
110,6352.048039341345,3515.661164196674,1799.787584726233,-2127.0437904489227,1731806953.0487516
111,6739.525984100532,3154.783257872332,1565.9652995965444,-1703.1429600212723,1731806953.0487516
112,7136.3705082987435,3395.2737846230157,1850.5829059244134,-1542.271163427271,1731806953.0493793
113,6848.88439870486,3026.9833965864964,1432.4845302780159,-1377.751094426494,1731806953.0493793
114,6983.803159556352,3401.5362470988184,1901.518473370932,-1405.5946495966054,1731806953.0617025
115,7054.965975913219,3574.731014046818,2302.532986019738,-1294.171810216736,1731806953.0617025
116,7319.388122480363,3437.8731150683016,1874.310701193288,-1740.038943034131,1731806953.0774975
117,7459.97657166468,3683.107704912778,2157.168684592005,-1985.8962262212299,1731806953.0774975
118,7492.805413475726,4009.4102361467667,1725.0774732613936,-2258.8098156377673,1731806953.078264
119,7460.012100714259,3678.9994248114526,2142.368030517362,-2222.282212770544,1731806953.078264
120,7685.817910288926,4004.9859344991855,2495.427675984334,-2408.727445261553,1731806953.09173
121,7222.156333482359,3756.121771747712,2402.8950712806545,-2808.545189924538,1731806953.09173
122,7344.574478731956,3600.1735534453765,2105.3467608559877,-3215.6688291509636,1731806953.1074011
123,6980.457819045987,3149.3473132867366,2538.14855317818,-3183.354223583825,1731806953.1074011
124,7153.7255140431225,3566.4377858950756,2078.896318419371,-3165.2549777482636,1731806953.10804
125,7007.235502728727,3388.61489275191,1917.8880154769868,-3590.0085053658113,1731806953.10804
126,7251.810000231024,3433.153361324221,1797.2762419059873,-3748.273591690697,1731806953.1216936
127,7475.326991032809,3873.449913157616,1406.262221738696,-3683.324619110208,1731806953.1216936
128,7307.188568824902,3806.7338378480636,1314.7393900230527,-3590.1001329147257,1731806953.1374245
129,7459.55957281962,3715.6317448774353,1143.921329496894,-3193.8988715088926,1731806953.1374245
130,7744.455801694188,4060.5758074405603,1498.1515636499971,-3367.3703910536133,1731806953.1380475
131,8022.489314150065,4483.182632483542,1928.0848527061753,-3236.240148857236,1731806953.1380475
132,8313.767682299018,4644.241424075328,2089.6223514922895,-3207.0128307035193,1731806953.151657
133,8126.21917932108,4435.360531750135,1919.1090928125195,-2801.7404419551603,1731806953.151657
134,8138.9180096206255,4533.684371535201,2017.096341601573,-3187.866412880365,1731806953.1673124
135,7910.946797971614,4306.887488472275,1796.4927328652702,-3673.277377879247,1731806953.1673124
136,8218.89016032312,4389.550497192889,1727.6673539807089,-3788.193283817731,1731806953.1679633
137,8132.969698741101,4351.98694203794,1590.6112403045408,-3444.8798176352866,1731806953.1679633
138,8049.502611530013,4415.744756482542,1713.6015902473591,-3148.5899835457094,1731806953.1819017
139,8340.758540279232,4545.579123344272,1863.8258916675113,-3421.3726764637977,1731806953.1819017
140,8434.336447020527,4610.3186615272425,1794.577904087957,-3031.9499837276526,1731806953.1975763
141,8873.656884965487,4281.14762702724,1605.638158326503,-2545.3572103427723,1731806953.1975763
142,9149.46328699775,4393.909350591246,1632.954387602862,-2640.483435665723,1731806953.1981027
143,8690.068936040625,4793.751404603943,1907.09092430491,-2761.5888760308735,1731806953.1981027
144,8702.057185348589,4900.516198589001,2062.212624717038,-3090.86088782968,1731806953.211724
145,8763.357885522302,5096.112966271583,2463.930238557514,-2979.131376653444,1731806953.211724
146,8918.290720986668,4981.765525126364,2092.438496158924,-3392.364142457489,1731806953.2275755
147,8943.525695937686,5142.657891170122,2253.3794809021056,-3748.1670045419596,1731806953.2275755
148,9100.062948483042,5545.849025593139,1886.261551501695,-3960.258600979112,1731806953.2281532
149,9169.213698663749,5292.124862849247,1429.7039146609604,-3864.752775810659,1731806953.2281532
150,9428.121362746228,5623.388371374458,1814.73222494917,-4003.858354662545,1731806953.2417111
151,9058.53696932504,5512.152526992373,1930.4484694781713,-4198.882917651907,1731806953.2417111
152,9179.231020695064,5406.128233198542,1691.279997361824,-4568.925448817667,1731806953.273801
153,8871.369936142582,5037.755567362998,1302.2967428704724,-4384.355776154436,1731806953.273801
154,8970.067765923217,5338.991419143975,1640.0714172185399,-4519.972028347664,1731806953.2744555
155,8778.837331438903,5141.283477936406,1478.4647302832454,-4972.6065101348795,1731806953.2744555
156,9070.949697277974,5233.580468942877,1425.3020524131134,-5079.997737362515,1731806953.275185
157,9269.196184079163,5583.210626150481,1880.0196584756486,-5128.175128591713,1731806953.275185
158,9198.08946622163,5558.067278748378,1870.8195045846514,-4964.090757935774,1731806953.2759445
159,9226.54262508452,5357.2066018781625,1504.737527471967,-4776.078507363331,1731806953.2759445
160,8796.902918174863,5143.871488705743,1583.9448686335236,-5241.613774047699,1731806953.2868276
161,8935.572798681911,5278.367640862241,1526.339189616032,-5558.177605797071,1731806953.2868276
162,9108.666588331107,5309.741661590524,1528.6317482888699,-5713.291826409288,1731806953.3018508
163,8903.764949558768,5115.334182093851,1360.6653614789248,-5300.423700850923,1731806953.3018508
164,8866.298631802667,5173.626132753212,1382.9420755649917,-5765.809371537063,1731806953.3177736
165,8750.445880925283,5057.792081375606,1302.1995054716244,-6118.809178604744,1731806953.3177736
166,9118.242602167651,5234.569672481157,1408.3191667143255,-6074.319328731857,1731806953.3180652
167,9024.28883548081,5186.755051547661,1285.1455616736785,-5720.956751368474,1731806953.3180652
168,9071.867842717096,5425.962792613544,1643.0764268329367,-6172.461783369072,1731806953.332094
169,9333.350427919067,5483.751726728864,1667.5578119428828,-6586.911886608694,1731806953.332094
170,9417.705741369631,5469.783200394362,1526.65334121231,-6252.087993325666,1731806953.3475535
171,9663.082447412424,5958.174865657929,1094.4069240335375,-6006.640229183715,1731806953.3475535
172,10072.867025457323,6289.268208735157,1512.1836682837456,-5743.882338096853,1731806953.3481755
173,9614.811558684334,6694.405961085111,1811.9983580815606,-5828.774327191059,1731806953.3481755
174,9799.269034348894,7068.3978266040795,2260.646106516011,-5877.108794218395,1731806953.3618405
175,9846.922839584295,7245.968276500236,2655.2728700404987,-5766.617189927492,1731806953.3618405
176,9864.934197770897,7087.18334408151,2303.11267051287,-6169.097743358929,1731806953.3779287
177,10058.610526826233,7335.948399484158,2575.9514619302936,-6395.522506376263,1731806953.3779287
178,10279.144947413355,7704.736194214784,2160.039057807997,-6645.274895367213,1731806953.3781724
179,10287.959891608916,7390.2461369908415,2642.654447590001,-6601.4844067860395,1731806953.3781724
180,10574.157605668064,7665.542042679153,2944.600880362559,-6819.232601906173,1731806953.3918548
181,10157.723485501949,7571.41624059435,3069.730453080032,-6997.824044490233,1731806953.3918548
182,10238.075236049946,7452.52295105299,2790.889122233726,-7405.288014612626,1731806953.4078643
183,9838.855875379872,7928.804820260033,3176.381180116441,-7416.698449377436,1731806953.4078643
184,10087.677029281855,8376.925242800731,2801.4749090583064,-7295.808053259738,1731806953.408056
185,9867.60448633926,8136.967651793733,2567.4039205815643,-6828.26820019912,1731806953.408056
186,-1686.1638142224401,-1619.8666077079251,-2426.879049696494,-2090.486268382054,1731806953.422556
187,-1374.774134061765,-2097.792162945494,-2731.4490222879685,-1909.140389480628,1731806953.4231424
188,-1474.995973074343,-2164.945806549862,-2846.065736229997,-1825.0225596772507,1731806953.4231424
189,-1509.561998414807,-2472.733963053208,-3294.7247043643147,-1749.0539718773216,1731806953.4367542
190,-1154.7296403688379,-1983.2951258020476,-3680.480425193906,-1681.389831929002,1731806953.4367542
191,-1002.0426148278639,-1739.0927483453415,-3538.104303830769,-1817.8961803116836,1731806953.4525568
192,-733.9478865042329,-1660.2780966791324,-3481.0521300067194,-1908.755179785192,1731806953.4525568
193,-1036.4534343201667,-2020.2023285147734,-3870.891821587924,-1719.1815209812485,1731806953.453091
194,-1015.1790134222247,-1866.5354491854087,-3729.529213112779,-2050.2449448588304,1731806953.453091
195,-1104.0783053189516,-1910.166992018465,-3650.2358542522416,-2254.6847059866413,1731806953.4668057
196,-705.5844852402806,-1682.9718096102588,-3491.9632881274447,-2177.7699234979227,1731806953.4668057
197,-733.8394294055179,-1674.3532101623714,-3538.715777473524,-1739.7285313378088,1731806953.4824743
198,-652.0029385751113,-1437.6250227671117,-3189.708313608542,-2177.6165875997394,1731806953.4824743
199,-535.5312342550606,-1483.365869175177,-3296.9592945878394,-1772.821036095731,1731806953.482967
200,-360.68530147662386,-1262.2199749452993,-3108.070037475787,-2091.000504625961,1731806953.482967
201,68.79171978496015,-1640.974603057839,-3401.8728380948305,-1682.8334333118983,1731806953.496972
202,482.6415690816939,-1295.3442688528448,-2940.283165863715,-1384.4081163476221,1731806953.496972
203,880.0078093237244,-1118.3254542001523,-3000.4244970511645,-1829.5197893739678,1731806953.5124238
204,962.6539884945378,-852.0988059043884,-2636.803374109324,-1945.479127400089,1731806953.5124238
205,991.1819453565404,-759.491403201595,-2406.567653037142,-2006.4600661275908,1731806953.5130131
206,1130.3698020074517,-877.2047543069348,-2755.8256901991554,-2409.800796548836,1731806953.5130131
207,1195.191617989447,-661.1526038167067,-2460.7644132450223,-2622.8554172245786,1731806953.5265715
208,1486.4438068387099,-1149.914519175887,-2741.142842973117,-2711.7173101217486,1731806953.5265715
209,1316.4148652032018,-674.5021767085418,-2533.095948338043,-2960.957332818769,1731806953.5423484
210,1511.8377275378443,-404.6515653557144,-2270.848553595133,-3208.923919580877,1731806953.5423484
211,1056.9873550268821,-640.4111186624505,-2318.0498309358954,-3555.773461171426,1731806953.5430577
212,1194.7166506950743,-683.11142640654,-2486.2312619932927,-3855.6629489683546,1731806953.5430577
213,825.835358465556,-202.79794504726306,-2097.9305392438546,-3881.1615868662484,1731806953.5566819
214,1077.9102253289893,285.0140357231721,-2413.5107773048803,-3696.2328838072717,1731806953.5566819
215,793.5488021480851,-133.05255077360198,-1964.9135175198317,-3513.2021799758077,1731806953.5721977
216,1016.6001754053868,-116.53715256927535,-2132.5096542341635,-3757.3690283829346,1731806953.5721977
217,1099.6053849719465,119.66931878216565,-1825.4432984222658,-3962.382864153944,1731806953.572934
218,1078.7255235193297,157.53206593357027,-1775.5754724130966,-3702.366319734603,1731806953.572934
219,989.3250850285403,-194.57390504470095,-1342.932625839021,-3731.8872200348414,1731806953.586604
220,1308.0075701028109,-681.6285560741089,-1708.1001974125393,-3636.544080514461,1731806953.586604
221,1533.1364577854984,-372.6286719851196,-1504.7076082723215,-3696.191744907759,1731806953.6025767
222,1758.1961573190056,-363.55567469261587,-1552.4567809565924,-3892.6916984296404,1731806953.6025767
223,1516.6808979804628,-655.2790909362957,-1872.6071767634712,-3632.2992940647528,1731806953.6030004
224,1473.814164688345,-570.2131964941509,-1796.532001814805,-4025.4076582072303,1731806953.6030004
225,1410.4022909896448,-584.793196471408,-1723.9218441750854,-4225.0678271916695,1731806953.616892
226,1881.1921171117574,-202.18647140450776,-1324.119059111923,-3921.5412866878323,1731806953.616892
227,1907.6649989481084,-99.95817606570199,-1226.0757118235342,-4328.135730070528,1731806953.6325507
228,2059.1421668534167,233.77553638024256,-1697.5667691873387,-4603.779446454719,1731806953.6325507
229,2263.5688383313827,262.0716194449924,-1699.2216749177314,-5076.901100199204,1731806953.6332088
230,2385.4091690378264,390.0678254785016,-1637.668531497009,-5518.040999472607,1731806953.6332088
231,1898.2086619101465,67.87918419577181,-1808.193009876646,-5987.282507013064,1731806953.6466336
232,2326.12427494023,452.8121270351112,-2280.776118027512,-5632.366001218092,1731806953.6466336
233,2759.4533931561746,664.9673017715104,-2328.9048905572854,-6066.796519970987,1731806953.6624904
234,2786.4573407862335,862.8248389773071,-2081.295464240946,-6301.314426492434,1731806953.6624904
235,2736.93171562301,870.0465857917443,-2000.4350872989744,-6477.450624755584,1731806953.663067
236,2828.192754341755,692.9211839903146,-2417.748083954677,-5997.765446588863,1731806953.663067
237,2828.3330005900934,774.2957971761934,-2382.6322933207266,-6451.026361618657,1731806953.676783
238,2987.0767941093072,1094.9735188768245,-2841.867698529735,-6718.187984903343,1731806953.676783
239,2885.6338777611963,706.3623844310641,-2487.7178722256795,-6833.498450287152,1731806953.692566
240,2933.951515238732,777.6467475364916,-2520.6813504351303,-6402.566607942805,1731806953.692566
241,3328.247297617141,350.9166827923618,-2853.184635795653,-6041.713010968175,1731806953.693132
242,3537.8425108338706,369.5713037713431,-2928.9867980475537,-6253.266061811708,1731806953.693132
243,3110.529021696653,833.2571899276227,-2577.4941706620157,-6310.134980537929,1731806953.7066429
244,3396.427543759346,351.4683180358261,-2872.815370663069,-6121.417758823838,1731806953.7066429
245,3033.778794805985,-86.281361927744,-2477.051677552052,-5968.885939131025,1731806953.722388
246,3311.1783942193724,-13.562747189309448,-2495.2911696359515,-6090.615942788776,1731806953.722388
247,3468.345819907263,367.8004611423239,-2021.8067455957644,-6126.302068165969,1731806953.7230456
248,3550.32068703603,570.9892257349566,-1708.586384406779,-6578.540120557882,1731806953.7230456
249,3545.3821491445415,319.2846089671366,-2162.8514625746757,-6510.601097962819,1731806953.7370193
250,3955.905357430689,-146.36285471590236,-2453.8381185270846,-6359.989716897253,1731806953.7370193
251,4308.908904398326,290.4443704588339,-2006.349739078898,-6190.405823356472,1731806953.7525704
252,4621.515921994578,505.3465017126873,-1799.2602588324808,-6126.303938115947,1731806953.7525704
253,4313.310766646173,245.43093459215015,-2019.484267723281,-5775.959460016806,1731806953.7530196
254,4500.146818682551,630.9903106740676,-1542.4955574246123,-5781.225239154417,1731806953.7530196
255,4373.582994332071,474.35769067984074,-1666.531209405046,-6153.272356696427,1731806953.7668371
256,3949.068820311688,888.6638077711686,-1179.1250077798031,-5780.71100291051,1731806953.7668371
257,3992.498408547137,1003.9293943555094,-1086.212803230621,-6196.157789488323,1731806953.7825868
258,4163.722248218488,1394.6928412257694,-1473.8478237879463,-6364.874026239384,1731806953.7825868
259,4292.07187479781,1234.0772277787328,-1729.101605613716,-6121.933865017723,1731806953.7831938
260,4416.488996573724,1376.7488012383692,-1612.3250994472764,-6519.492710107472,1731806953.7831938
261,3948.2198630217463,1171.2338188732974,-1652.9291932662018,-6846.778835029807,1731806953.796763
262,4397.5464032981545,1548.3092319057323,-2120.5195349762216,-6496.90745427506,1731806953.796763
263,3936.682271658443,1863.8352414174005,-1939.0315398764797,-6716.241366976406,1731806953.8123808
264,4105.9819328025915,2275.5327782896347,-2407.3231128281914,-6690.595003030263,1731806953.8123808
265,4069.093429589644,2262.022389699705,-2343.924328779336,-6877.7190273632295,1731806953.813166
266,4175.40008583013,2132.8350255303085,-2684.176686848048,-7308.76119675627,1731806953.813166
267,4072.736092146486,2056.4700083350763,-2867.932931270916,-7005.554417698644,1731806953.8268304
268,4284.163856341504,2493.5521161565557,-3170.5974248349667,-7103.900696883444,1731806953.8268304
269,4192.044510582928,2090.0898389867507,-2836.0484141986817,-7255.409653938375,1731806953.8425362
270,4422.128765706904,2394.927214425057,-2463.107460567262,-7407.51512503624,1731806953.8425362
271,3982.219293518923,2200.029808034189,-2517.695040320512,-7718.816917547956,1731806953.843181
272,4225.511005336419,2245.260158098303,-2545.9967332351953,-7894.3659515180625,1731806953.843181
273,3817.3233645725995,2700.0076833604835,-2163.979042411316,-7933.08513575932,1731806953.8567493
274,4105.34988971008,2272.6792346234433,-2362.9043210544623,-7638.375409401022,1731806953.8567493
275,3856.468897408806,1893.473948566243,-2754.167044568807,-7297.66304363776,1731806953.8723829
276,4112.801640371792,1993.1535020852461,-2742.214324310422,-7386.452008485794,1731806953.8723829
277,4273.364895219449,2310.298888277728,-2333.624644301366,-7485.20032691583,1731806953.8730457
278,4264.6509283226915,2446.4798653642647,-2153.2081305389293,-7071.092424522154,1731806953.8730457
279,4258.444564346224,2140.569138638675,-2631.4908462222666,-7055.040773912333,1731806953.8868904
280,4638.569865792524,1696.1568269040436,-2881.0394106656313,-6859.2065225825645,1731806953.8868904
281,4974.051981467754,2087.673863615375,-2508.8501769253053,-6742.863844810985,1731806953.902785
282,5072.919976696372,2092.9733018525876,-2619.7812194610015,-6993.0912010963075,1731806953.902785
283,4802.783262996934,1840.660951341968,-2800.34358932171,-6626.279943492264,1731806953.9030313
284,4908.1904732980765,2020.3014358635992,-2642.25614824472,-6931.867168871686,1731806953.9030313
285,4741.770535119809,1893.9732252103277,-2722.4751323442906,-7272.607583884615,1731806953.917061
286,5140.499968895689,2140.6869454872794,-2476.6926471563056,-7140.151547153946,1731806953.917061
287,5168.401492515113,2233.737526334822,-2429.508199365344,-7587.787652650382,1731806953.9325829
288,5231.370188069064,2432.3000346822664,-2140.911339484621,-8055.108721563593,1731806953.9325829
289,5318.150826640893,2319.910431163851,-2324.2131860628724,-7755.078987518325,1731806953.933215
290,5449.512942634523,2468.2965717557818,-2217.9495386718772,-8159.777301623486,1731806953.933215
291,4972.140892590396,2200.8899850239977,-2345.6783418585546,-8560.91523097083,1731806953.9467115
292,5324.884516511112,2419.015910039656,-2110.7976650414057,-8469.628012952395,1731806953.9467115
293,5694.055650987197,2649.2796803615056,-2058.8897236064076,-8832.233753056265,1731806953.9787211
294,5828.779937040992,2996.6359783960506,-1641.4477004022337,-8886.608158512041,1731806953.9787211
295,5852.573180559091,3020.257186516188,-1519.5344416466542,-9012.577338769566,1731806953.9796467
296,5878.797359048389,2762.23400877323,-1068.567955239676,-8669.529405483976,1731806953.9796467
297,5993.853511235211,3001.6418344867416,-770.7092331186868,-8881.241402075626,1731806953.980331
298,6238.551425436046,2543.117010269314,-1017.9558891393244,-8905.971490532625,1731806953.980331
299,6135.418074307963,2102.7793195364065,-701.3546583903953,-9069.306011247449,1731806953.9811294
300,6335.586869686376,2393.954840436578,-392.81104209600016,-9272.4087581411,1731806953.9811294
301,6189.087508622091,2634.1087761912495,-745.3882404686883,-8949.199124170467,1731806953.9918425
302,6249.262498909142,2332.9776416090317,-269.7178449044004,-8590.568897719495,1731806953.9918425
303,5819.248802003916,1856.7687004511245,201.0775910676457,-8543.971614221577,1731806954.0067203
304,6109.178936218843,1441.093779976014,-32.82697186106816,-8277.40089512989,1731806954.0067203
305,5931.019452079665,1254.6055386355147,-263.487171578221,-8760.399624657352,1731806954.0224285
306,6177.534957658965,1312.4879702497274,-317.3716501398012,-8925.26563440403,1731806954.0224285
307,6400.973410561681,1712.517019260209,-780.2777671553195,-8914.474153081886,1731806954.0231063
308,6402.581567542627,1829.347753976006,-651.2773979837075,-8527.327189468779,1731806954.0231063
309,6335.923460682388,1487.0964193809777,-181.43376655038446,-8554.839763492811,1731806954.0368068
310,6681.245253141038,1003.7442693077028,-534.5289410669357,-8453.116354648024,1731806954.0368068
311,6898.774664113764,1278.6100865011103,-338.3580987411551,-8506.409929016605,1731806954.052552
312,7136.830515993293,1353.2173507171683,-308.62589409342036,-8629.529305507895,1731806954.052552
313,6832.3839601003565,1064.4521953384392,-561.0691411024891,-8338.802572602406,1731806954.053223
314,6840.87540294975,1125.6425684634596,-556.9496413012967,-8791.255669241771,1731806954.053223
315,6668.643660240341,932.631941600237,-717.5577749484219,-9217.359300743323,1731806954.0669093
316,7059.493124809582,1221.266200480517,-446.92365455487743,-9066.304741533007,1731806954.0669093
317,6961.840597066563,1216.2509946399368,-536.2062861970626,-8689.455592447892,1731806954.0824702
318,7014.3899313439615,1320.8298171008937,-368.161361488048,-8274.925081359223,1731806954.0824702
319,7104.162489880342,1194.864376743324,-640.7869786079973,-8063.755370261148,1731806954.0830517
320,7158.841697182506,1285.476542819757,-583.104631641414,-8531.773930516094,1731806954.0830517
321,7583.550346000586,960.2623224728741,-824.5525727807544,-8054.628144419286,1731806954.0970323
322,8058.207228676882,1387.0971044157632,-1259.6880626752973,-7666.434008818585,1731806954.0970323
323,8435.415408157744,1551.871486613527,-1325.5327412951738,-8136.255200852174,1731806954.112528
324,8530.22374198446,1856.6265842528082,-917.3320108815096,-8216.318979103584,1731806954.112528
325,8638.617262400221,2017.348784848582,-601.7480329205282,-8162.157747945283,1731806954.1131442
326,8757.527381491382,1922.4002047735266,-899.7657007896341,-8563.288197492715,1731806954.1131442
327,8902.67850862164,2224.597210843116,-472.58123820088804,-8657.31676217867,1731806954.1270916
328,9353.328973482363,1903.3790735988878,-535.3947279066779,-8481.62374206027,1731806954.1270916
329,9212.575968699995,1498.1740030497313,-167.58678696444258,-8603.202279769816,1731806954.1425655
330,9442.65274402406,1823.9622980398126,220.71019588503987,-8737.236554281786,1731806954.1425655
331,9042.04214057047,1644.9706861604936,219.90611739456654,-9006.520570791326,1731806954.143177
332,9265.011236028746,1674.7515095076524,148.33378199255094,-9217.677192239556,1731806954.143177
333,8784.396692723036,2060.366984088905,418.43496664240956,-9363.166780315805,1731806954.1566277
334,9124.194652947132,1694.657127021812,299.9624158460647,-8992.705380355008,1731806954.1566277
335,8852.388073917478,1310.9303019181825,758.8892793087289,-8748.560971347615,1731806954.172408
336,8956.742502381094,1153.293518785853,489.3808688018471,-9149.6278425958,1731806954.172408
337,9190.21136696497,1563.5362345753238,960.202484073583,-9184.173298486508,1731806954.1732216
338,9228.496722811367,1747.4981734957546,1201.257735717576,-8706.288882148452,1731806954.1732216
339,9267.589897048194,1551.52180596767,859.1298178210855,-8557.743795808405,1731806954.1872723
340,9525.618684641086,1901.3165187733248,1262.3789206934161,-8682.622795228846,1731806954.1872723
341,9893.305078834761,1463.5687087597325,867.5502025713213,-8357.668497928884,1731806954.2024553
342,10129.51342013618,1561.2025370029733,901.5010143690743,-8456.527143407613,1731806954.2024553
343,9771.724671175238,1115.7542729806155,1377.6220678780228,-8404.682780271862,1731806954.2031472
344,9779.07170463819,1296.9318563840352,1550.0071464856155,-8704.547958719078,1731806954.2031472
345,9697.66343235271,1185.9185360493138,1446.0285779675469,-9043.283787355758,1731806954.2170885
346,10064.046471411828,1419.7370812790468,1648.8358727646992,-8967.472275353968,1731806954.2170885
347,9921.720838698093,1314.2980818282813,1433.1296630203724,-8690.822525881696,1731806954.2323847
348,10040.66835678881,1582.73314104788,1806.2071230001748,-9066.680601478554,1731806954.2323847
349,10163.071542438585,1508.0978275821544,1625.9121559862979,-8762.57063658163,1731806954.2332213
350,10263.744039395824,1644.796780812554,1704.919412500225,-9197.92491062358,1731806954.2332213
351,10746.379998627584,1259.0896786823869,1361.6414753673598,-8816.30738909496,1731806954.2467828
352,11177.923314614687,1713.6296394970268,987.4364355509169,-8369.744634885807,1731806954.2467828
353,11627.277904140763,1969.8969342107885,1029.1494097067043,-8733.853814771865,1731806954.2626252
354,11738.586676571984,2285.9465297162533,1392.310524953995,-8840.025834613945,1731806954.2626252
355,11831.526930370834,2393.1956407455727,1636.6381890592165,-8852.545149715617,1731806954.2632942
356,11979.82144341385,2293.9611353212968,1335.2695708298124,-9263.552675046027,1731806954.2632942
357,12125.855186933652,2592.5491379336454,1733.8213593577966,-9385.626749499701,1731806954.2933164
358,12509.647460286506,2205.0749330744147,1550.8112249760889,-9316.745272115804,1731806954.2933164
359,12243.626506488305,2542.922535471618,1530.02860092232,-8835.221933120862,1731806954.293905
360,12462.393824346364,2852.4422656544484,1908.575664587319,-8987.877169512212,1731806954.293905
361,12090.105483257212,2770.160726729315,1997.15893493779,-9163.263517834246,1731806954.2949245
362,12255.330523399636,2669.2301766751334,1725.0269846119918,-9562.929796549026,1731806954.2949245
363,11825.402844193392,3152.5580173986964,2145.1953948838636,-9573.091104728635,1731806954.306792
364,12168.342320380267,2802.8624119418673,2016.0155105143785,-9200.595199191943,1731806954.306792
365,11879.95676484704,2376.332431845367,2409.2248519556597,-9028.178331434727,1731806954.322428
366,12081.47379415948,2369.881104421802,2273.444044164382,-9302.268119387329,1731806954.322428
367,12253.540981270839,2695.2056518173777,2678.6117157139815,-9400.702286221087,1731806954.3230553
368,12294.160034689587,2817.1974484720267,2813.517386915628,-9006.7337450888,1731806954.3230553
369,12319.71103118686,2627.9005422648042,2508.3022815817967,-8846.161140491255,1731806954.3372295
370,12646.60259666387,3037.118525466416,2029.299635156989,-8873.37639246881,1731806954.3372295
371,12928.271291876677,3354.5444041555747,2271.8901157327928,-8871.968320135493,1731806954.3526263
372,13154.916708991397,3473.2376090493053,2333.2917932053097,-8956.656484682113,1731806954.3526263
373,12827.884897266049,3102.127336446196,1948.9497545589693,-8785.318578062113,1731806954.3532095
374,12868.70029543247,3199.08985264739,2002.9333404693753,-9189.156715177465,1731806954.3532095
375,12745.7903533387,3039.8617420839146,1828.7418901831843,-9600.891651049256,1731806954.366894
376,13059.134131226223,3302.0810875771567,2095.1312241270207,-9469.583763604984,1731806954.366894
377,13014.543304054532,3253.7989791492,1939.6710627689026,-9132.332675250713,1731806954.382721
378,13197.323434588965,3519.081302706152,2309.2928551896475,-9501.129819731228,1731806954.382721
379,13247.703626892064,3407.402280179318,2120.4222975773737,-9223.292652023025,1731806954.3832412
380,13293.870821895078,3483.178263131529,2122.85510249855,-8746.603133720811,1731806954.3832412
381,12828.410353209823,3199.129121596925,1947.4425748768263,-9193.345403127838,1731806954.3967862
382,13290.205719938502,3522.929659760557,2354.500765854027,-8944.440101476852,1731806954.3967862
383,13638.156662066001,3739.8831261401065,2351.3480301913805,-9356.229265898,1731806954.4126203
384,13792.070374792442,4054.7022945601493,2729.6146013597026,-9442.033790581394,1731806954.4126203
385,13843.853029578924,4170.1081273928285,2958.9265671428293,-9465.660608551465,1731806954.4131432
386,13955.410505357198,3984.455753692426,2582.1428663069382,-8979.47922416171,1731806954.4131432
387,-2654.2836665022187,-2705.1799649992026,-4064.8897820394486,-4369.138123234734,1731806954.4276695
388,-2220.518849941436,-3022.6769017875195,-4066.6419251686893,-4137.544818478636,1731806954.4281557
389,-2409.0453367577866,-2585.9388647619635,-3984.1322523462586,-4549.825779743958,1731806954.4281557
390,-2346.310384951066,-2439.710646444466,-3851.012383373454,-4927.136806473602,1731806954.4417458
391,-2615.0259366673417,-2431.62872264022,-3543.072760921903,-4898.967880007345,1731806954.4417458
392,-2428.9359946721233,-2470.0131858354434,-3724.8449884182774,-5218.536721371114,1731806954.4575405
393,-2834.165374570992,-2930.2789334822446,-3243.1103450758383,-5161.901546392124,1731806954.4575405
394,-2654.278056652285,-2589.83771046577,-2794.9974023350514,-5186.783100797329,1731806954.4580772
395,-2791.044328081887,-2785.279272300191,-3025.612723252736,-5645.790372109041,1731806954.4580772
396,-2779.686251916457,-3021.2669595042244,-3494.887889892794,-5249.198291157838,1731806954.471714
397,-2574.9734780918807,-2614.1956788771786,-3884.6079046754166,-5178.250519048423,1731806954.471714
398,-2449.189422882162,-2471.660611765925,-3726.8664043443277,-4746.972735958174,1731806954.4873996
399,-2444.6117853363976,-2727.886767580174,-4103.39766193321,-4676.737414790317,1731806954.4873996
400,-2096.829138706904,-2244.061520162504,-4448.05936204968,-4572.8224245714955,1731806954.4881217
401,-1766.9905320648104,-1774.8256224719808,-4024.6297590164468,-4380.507419100031,1731806954.4881217
402,-1530.0790895717219,-1696.8000896964222,-3959.1665501920506,-4476.209589016158,1731806954.5018363
403,-1827.4235754488036,-2004.8706086464226,-4214.530659066513,-4204.1187775898725,1731806954.5018363
404,-1835.5167189529166,-1923.361359062139,-4207.060208905023,-4637.74895775225,1731806954.5178435
405,-1967.828769535292,-2060.8195119835436,-4312.8563688015565,-4990.285017225426,1731806954.5178435
406,-1634.1025368892588,-1906.1185503164306,-4198.796899952926,-5002.07318188576,1731806954.518118
407,-1643.7028600755148,-1846.5176346725784,-4176.96149406163,-5485.825501254294,1731806954.518118
408,-1485.6135490485467,-1521.7372427205555,-3721.6847729557194,-5749.628694378771,1731806954.5316873
409,-1320.4296478056349,-1541.485784436576,-3768.4166928520426,-5342.880915097892,1731806954.5316873
410,-1314.4439379265532,-1616.190286051482,-3973.7484201192856,-5078.202585383784,1731806954.5480583
411,-850.7056931708939,-1950.5149026904255,-4198.606165055186,-5565.339514212217,1731806954.5480583
412,-486.20008388953283,-1686.515364818275,-3930.9003863269463,-5440.258560194168,1731806954.5480964
413,-100.53973050881177,-1433.8645533616655,-3832.9879355370067,-5771.778251866344,1731806954.5480964
414,18.895844526123255,-1128.641968227923,-3438.3069434631616,-5843.66286891466,1731806954.5619268
415,162.42198512563482,-941.2393213482574,-3069.885658928193,-5732.9655701261945,1731806954.5619268
416,182.28085389034823,-1187.279859633185,-3537.911698983051,-5334.421261398122,1731806954.5774686
417,287.11959939822555,-987.496273950208,-3283.9556624419056,-5604.539275597781,1731806954.5774686
418,626.8147123735398,-1450.5575968138874,-3576.743080222979,-5615.790764614474,1731806954.5781178
419,427.24804088799283,-992.1281400453299,-3371.134600359015,-5929.8058545440435,1731806954.5781178
420,683.8220073981211,-615.1144353621639,-2890.3985103047453,-5983.645454306155,1731806954.59155
421,394.38367002736777,-662.8056395971216,-2713.9612500951625,-6059.786077504046,1731806954.59155
422,479.09614392369986,-812.7513184705749,-3046.1223346097395,-6520.37906639697,1731806954.607738
423,-2.1878414740785956,-358.10103060724214,-2625.6659520412795,-6547.61675777426,1731806954.607738
424,238.10260062897578,83.23147351387888,-3035.080279990565,-6446.009285828099,1731806954.6079977
425,114.9046862386167,-52.005178833846,-3192.494539075531,-6835.420758864377,1731806954.6079977
426,185.0128508079797,-249.50929549383,-3546.0459813866764,-7322.037841598969,1731806954.62162
427,440.3451705328189,-701.9549123332836,-3797.501894807443,-7111.483344043605,1731806954.62162
428,468.74597079632804,-653.5082483072765,-3767.5116370627657,-6792.211824726313,1731806954.6375823
429,392.83535144571215,-951.3557507283986,-4215.433844905812,-6794.274379551876,1731806954.6375823
430,602.7989448080771,-635.0069632264785,-3825.8391167717054,-6935.795933775138,1731806954.6381843
431,1046.966293095611,-1061.778166870121,-4208.206488241442,-6568.857519572601,1731806954.6381843
432,1364.6371352318674,-905.8018993181176,-4079.987758160569,-6588.714518387336,1731806954.6518815
433,1067.9957505464554,-1165.6613679393195,-4260.961517016403,-6241.466677451506,1731806954.6518815
434,1124.324253729079,-989.7607833733782,-4105.256392211188,-6551.197711981833,1731806954.667988
435,1074.4956966694444,-1015.8821146138944,-4101.037785061169,-6767.047907874454,1731806954.667988
436,1257.8442919971421,-986.206008465495,-4138.055314822588,-6956.2457067328505,1731806954.668026
437,1371.408224101644,-759.0463551068678,-3873.362025508657,-7193.542358921375,1731806954.668026
438,1504.2831296273507,-527.3782523516566,-3555.3171933768317,-7571.648114391603,1731806954.681953
439,1642.277958192397,-523.6420922959223,-3527.0024108123034,-7123.873632596806,1731806954.681953
440,1742.4829676551744,-407.7033237195574,-3466.5039191790856,-7569.800603813492,1731806954.697608
441,2201.6136556654237,-800.1609452697448,-3819.4831567970105,-7178.7996732960455,1731806954.697608
442,2495.7605270803906,-563.7132503711618,-3555.6593942227773,-7067.7096850122325,1731806954.6982136
443,2894.7648435030133,-286.89146550092846,-3414.0686518503353,-7353.639996224549,1731806954.6982136
444,3120.3537388802506,125.84950345894322,-3807.7828797856346,-7257.556356512941,1731806954.712412
445,3285.328205725644,353.4485950623639,-3448.262557145208,-7112.631493330002,1731806954.712412
446,3245.78998339409,24.154143863823265,-3060.590137588326,-6857.684383300599,1731806954.727673
447,3302.7243503695354,241.5638780379668,-2792.0634508198127,-7099.113624940161,1731806954.727673
448,3604.1378473984078,695.2474017627537,-3142.7856588144787,-7172.028584426269,1731806954.728351
449,3471.7734382166527,299.73241199878976,-2770.4299995261244,-7335.65107743768,1731806954.728351
450,3638.122318295762,492.69068026263267,-2579.2818428408355,-7654.7767406567,1731806954.7419333
451,3284.757870982401,392.379083651118,-2414.3298153951764,-7758.6001033266075,1731806954.7419333
452,3377.7056045811623,230.95191191369668,-2827.130622754339,-7309.688691945281,1731806954.7578585
453,3863.4195014764555,690.6697642169893,-2437.7266295179725,-7365.211246687453,1731806954.7578585
454,4082.7889432273805,1097.0641229520552,-2894.705005103722,-7310.311385287903,1731806954.7580428
455,3978.0100361187942,955.1293097836897,-3047.167636647355,-7680.862542847637,1731806954.7580428
456,4050.1302668643184,862.5443464806303,-3282.2801872617565,-8067.740233663935,1731806954.7717323
457,4299.994852853939,398.13104978296906,-3544.544411554467,-7878.23763295915,1731806954.7717323
458,4434.919223555364,535.8940045507625,-3437.037247428205,-7453.953462786041,1731806954.7875168
459,4331.531559230294,181.63759109796956,-2988.3016113447957,-7554.551161744166,1731806954.7875168
460,4605.249227137305,472.79815239831805,-2629.6582952439785,-7718.856186497491,1731806954.788054
461,4984.312396996189,36.56874176673591,-3050.830868653953,-7401.123636011966,1731806954.788054
462,5289.043185285758,150.04852612223476,-2984.836594035849,-7466.323181889486,1731806954.8017588
463,4988.800276943017,-90.73371282499284,-3112.427020924166,-7079.178088226356,1731806954.8017588
464,4969.73426696891,28.282993414904922,-3030.36426614644,-7442.1428587259725,1731806954.81802
465,4982.745378914755,73.10569438384846,-2919.565990059171,-7562.8088608463295,1731806954.81802
466,5226.182946830522,133.9725661627017,-2929.9292528363876,-7714.536602048669,1731806954.8181164
467,5164.440938462038,224.93254293501377,-2865.9002956449986,-8157.303357802797,1731806954.8181164
468,5465.0877559999935,622.7531810216606,-3312.5135385035537,-8317.43652415555,1731806954.8316474
469,5586.627024760004,571.8774519744329,-3381.6811182340607,-7957.916201515123,1731806954.8316474
470,5672.1566667966545,608.1039928952232,-3419.510206285864,-7518.206813974772,1731806954.847412
471,6068.834765446838,220.60547868628055,-3751.6769006503746,-7110.593247854151,1731806954.847412
472,6478.970894087572,559.7620460679755,-3356.436793533154,-6866.822828842327,1731806954.8481662
473,6890.556233961135,821.8224458131008,-3249.870214245748,-7192.583074582741,1731806954.8481662
474,7079.718503769953,1252.1372046647593,-3675.6353848013096,-7106.563505651895,1731806954.8620315
475,7248.530107969884,1470.3790665790439,-3345.07310751779,-6991.146453119349,1731806954.8620315
476,7073.585067842621,1959.215779937338,-3194.7459588488564,-6973.073386583477,1731806954.8772516
477,7145.250900743529,2155.8017511582,-2957.9336237045936,-7244.735979464836,1731806954.8772516
478,7515.351400358602,1710.4002358852886,-3209.080995379016,-7201.076387382112,1731806954.892629
479,7248.077580075245,2057.4592118733563,-3183.716993879527,-6739.643790949136,1731806954.892629
480,7417.100488622673,2311.3217509156093,-2876.5982794682495,-6962.9756567031145,1731806954.8931985
481,7083.7258065724745,2210.4117703111842,-2825.26441267645,-7146.298072731122,1731806954.8931985
482,7174.2052062004805,2049.478265367914,-3157.747128587216,-7617.07480920339,1731806954.9081109
483,7585.794285974,2409.6025818511844,-2873.4979024049826,-7784.267036722507,1731806954.9081109
484,7100.471208624076,2192.168538327329,-2816.180195684079,-8201.393038380425,1731806954.908286
485,6762.591817077249,2678.205936568789,-2553.2427893993445,-8124.2763012940995,1731806954.908286
486,6896.588692589663,2598.2431356161833,-2741.6664289669134,-8478.878655492794,1731806954.9386563
487,7194.679288507905,2153.3371570874006,-2978.757386657875,-8262.411376107484,1731806954.9386563
488,7292.582389547955,2299.6719625536352,-2857.6743856924586,-7820.366421044804,1731806954.9387343
489,7248.042051025666,2064.673478887882,-3190.5610107984394,-7738.746844411828,1731806954.9387343
490,7514.451954419259,2382.918395667337,-2817.7397339656018,-7879.318464046344,1731806954.93953
491,7954.269799058326,1991.803398201242,-3143.8590101017617,-7461.831562042702,1731806954.93953
492,8284.132715050131,2185.88550640177,-2955.9327772282995,-7429.612323924433,1731806954.95161
493,8065.741257137619,2023.7795428223908,-2989.5245586303063,-7918.492046132218,1731806954.95161
494,7995.756509266794,1973.8630981137976,-3142.1573556219228,-7535.071892824955,1731806954.9672332
495,8021.2962860642,2023.2970957281068,-3023.056501633022,-7647.532554442529,1731806954.9672332
496,8214.667813273147,2030.2084308462217,-3101.8786330991425,-7876.956717224326,1731806954.9679325
497,8239.454000229482,2151.498996259179,-2968.90462022461,-8246.731845543254,1731806954.9679325
498,8526.139771232847,2585.981873611454,-3381.4922532862984,-8350.856270159595,1731806954.998057
499,8577.716731521767,2444.0433205431327,-3570.628343795426,-8130.763157767244,1731806954.998057
500,8626.09794729855,2482.28566754004,-3615.099494168535,-7695.78474367084,1731806954.9987562
501,8166.494161943905,2225.4218587833457,-3765.795022983104,-8084.883935060818,1731806954.9987562
502,8445.745011835359,2333.1010583075695,-3699.606273567304,-8167.343119233847,1731806954.9995513
503,8934.746280791704,2760.1172253983095,-3286.1996024153195,-8207.135654762387,1731806954.9995513
504,9117.296407478862,3137.957447971683,-2813.911946360953,-8189.208444324788,1731806955.0117412
505,9338.57132825721,3425.204203968402,-2337.931139100343,-7933.941572849173,1731806955.0117412
506,9233.057530807331,2979.999033443164,-2111.710200630594,-7843.134931975044,1731806955.0273836
507,9306.092167092022,3173.6978018982336,-1851.1868997672573,-8100.982334420085,1731806955.0273836
508,9626.67639129376,3650.4639881495386,-2197.2978111165576,-8136.202842252795,1731806955.0280828
509,9433.467549732886,3185.895485603716,-1894.2724172067828,-8405.182056915946,1731806955.0280828
510,9611.724271270912,3430.4942924557254,-1627.7278774147853,-8640.066473633051,1731806955.0580475
511,9364.453305900563,3416.1405564257875,-1445.8415829697624,-8695.43569247704,1731806955.0580475
512,9406.815152698662,3180.349213969428,-1878.1609281976707,-8296.635200602002,1731806955.0586529
513,8943.112436992582,2724.8892377656884,-2336.107937871944,-8228.473653959576,1731806955.0586529
514,9248.275183727033,2283.274371197913,-2594.385428811889,-7962.220826364122,1731806955.0595353
515,9207.975891754497,2223.138649860397,-2647.8716080281883,-8223.8885366139,1731806955.0595353
516,9317.229589160066,2148.7669993415475,-2811.559549288824,-8560.789944322314,1731806955.0716772
517,9711.00926534459,1810.268654352054,-2862.108037089929,-8152.469537110068,1731806955.0716772
518,9624.475460169837,1601.4737797258422,-3274.420787504874,-8202.180287321098,1731806955.0874212
519,9401.048226966988,1134.4593826089986,-2934.94258872699,-8459.333938324358,1731806955.0874212
520,9652.947318532504,1494.0002746991813,-2516.0607040398754,-8554.559270996135,1731806955.0881479
521,10125.377090785187,1164.4066315041855,-2764.345182298217,-9022.22254075529,1731806955.0881479
522,10456.051565067377,1375.7483780002221,-2547.1878913710825,-8979.770936358254,1731806955.1015768
523,10115.874004997779,1076.3020683480427,-2784.6004804582335,-8684.522664406337,1731806955.1015768
524,10105.753835717682,1128.026754685212,-2778.771846377291,-9117.655437874608,1731806955.1172392
525,10125.803439380135,1114.8903560908511,-2726.787236993201,-9278.428127119783,1731806955.1172392
526,10308.198360219132,1237.6525721363723,-2654.375294051133,-9376.596761056688,1731806955.1179397
527,10312.190703421831,1283.7786282398738,-2664.1513925353065,-8897.962494777516,1731806955.1179397
528,10559.775820388459,1698.7467076233588,-3055.9863207428716,-8981.610967136454,1731806955.131701
529,10641.522553619929,1582.456388451159,-3223.262696010992,-8756.932737398427,1731806955.131701
530,10656.88045278797,1552.0659614112228,-3337.0566319627687,-8395.215223534033,1731806955.1472647
531,10215.901369212661,1318.6513253767043,-3435.1841270001605,-8716.334253429435,1731806955.1472647
532,10500.993942834903,1484.0035221176222,-3296.482457343489,-8733.214291879442,1731806955.1479597
533,10943.201583545655,1808.1200818275101,-3058.66034921119,-8934.488227694761,1731806955.1479597
534,11108.151741041336,2163.6106622656807,-2604.6234049405903,-8940.494507023599,1731806955.161686
535,11290.954310975503,2354.779388400726,-2210.437949610874,-8763.844072516542,1731806955.161686
536,11197.10526148742,1954.8644063388929,-1873.5907704518177,-8589.035538737662,1731806955.177387
537,11280.24884735234,2236.6976571497507,-1582.1758959544823,-8805.732821970247,1731806955.177387
538,11651.16838505771,1777.3612746419385,-1855.9646219606511,-8746.79573856853,1731806955.1781013
539,11410.043945264537,2260.889200013131,-1652.7309785685502,-9126.861201615538,1731806955.1781013
540,11571.66933169961,2502.051038805861,-1396.7927950508893,-9389.174044607673,1731806955.1916296
541,11318.208831902593,2559.746475422289,-1093.1914565479383,-9310.565087439027,1731806955.1916296
542,11326.156119308434,2280.3366797827184,-613.1341583356261,-8972.410813245457,1731806955.2073984
543,10882.562845664099,1805.2684081112966,-124.95566736953333,-8935.077261937782,1731806955.2073984
544,11110.09274911834,2228.843867242802,-573.7287024524994,-8857.99231400108,1731806955.2079582
545,10999.139267182909,2036.248369274661,-846.2196831740439,-9322.833829243667,1731806955.2079582
546,11073.458559102379,1909.0992505811155,-1092.8885246515274,-9752.222962856293,1731806955.2217033
547,11342.957619859371,2390.3290074295364,-1423.0655922396109,-9614.330981540028,1731806955.2217033
548,11451.788708569948,2520.8253365834244,-1316.1642919061705,-9156.82154016057,1731806955.2373435
549,11200.128970601596,2998.305843726266,-1011.5120415156707,-9453.502193795517,1731806955.2373435
550,11473.094918617513,3405.100371756591,-1496.1955959731713,-9486.820962500758,1731806955.2379992
551,11870.442459359765,3876.0080047273077,-1080.6422222466208,-9260.906695827376,1731806955.2379992
552,12112.915133086964,4009.6869887434877,-947.3970666253008,-9297.697961641476,1731806955.2517104
553,11900.847845999524,3875.4283202341758,-934.6851466759108,-9760.951889352873,1731806955.2517104
554,11930.065814403351,3981.811644423753,-933.3481324417517,-10173.76578636188,1731806955.267387
555,11902.601859078743,3928.0786318103783,-917.0646080346778,-10374.574104632717,1731806955.267387
556,12076.245414021425,4019.358370028902,-862.910856676288,-10511.054273715708,1731806955.2680073
557,12104.790200433228,4140.675114741549,-766.5392446680926,-10916.085438916925,1731806955.2680073
558,12443.232446923386,4610.769319471903,-1112.7660929160193,-10932.22123727575,1731806955.2817085
559,12427.75861085672,4426.577376704197,-1352.2300171288662,-10798.512334059924,1731806955.2817085
560,12488.855486482847,4432.750081581064,-1452.0292474464513,-10408.685732128564,1731806955.2974076
561,12063.116495226976,4176.421078518033,-1601.7000436731614,-10778.404761948157,1731806955.2974076
562,12372.533378161024,4356.100831989199,-1434.9640839486383,-10770.562191741075,1731806955.2980292
563,12653.244658985175,4571.6892348849215,-1368.478012486361,-11161.07880521426,1731806955.2980292
564,12889.114539340604,5033.176059867255,-1748.2012746874243,-11017.423638066277,1731806955.3116667
565,13192.973930940498,5394.263400589116,-2143.779842750635,-10658.613896417432,1731806955.3116667
566,13053.569160092156,4970.83566750586,-1909.1478692805395,-10571.846347495448,1731806955.3274364
567,13104.407490139827,5164.059468666557,-1662.0545491580851,-10840.917189707514,1731806955.3274364
568,13566.498308965005,4835.709342206828,-1763.3628291077912,-10608.538505960722,1731806955.3279743
569,13371.65887102345,4346.63327525137,-1461.4332258850336,-10910.16330733709,1731806955.3279743
570,13562.186204316095,4586.938676954247,-1198.471510250587,-11155.32496913243,1731806955.34158
571,13282.022818835452,4568.68796517048,-1018.455165783409,-11188.699836337008,1731806955.34158
572,13393.135246519,4449.555322031956,-1295.2956501534209,-11611.882605973165,1731806955.3573315
573,13863.063025701325,4867.027264435776,-954.2784825437702,-11722.59860426141,1731806955.3573315
574,14120.901078396477,4408.57910816744,-1288.2665081867017,-11533.499912751839,1731806955.3579805
575,14070.784549040254,4226.178577478509,-1463.8118022568524,-11913.210085303057,1731806955.3579805
576,14167.74519529147,4180.376022721175,-1625.8317481372505,-12262.202589568216,1731806955.371668
577,14481.644348322414,3747.4564235503785,-1866.3933329870924,-12043.674625307322,1731806955.371668
578,14540.132643729448,3836.892391090747,-1832.9212283836678,-11638.867854103446,1731806955.3873854
579,14325.628811820876,3359.6269281953573,-1480.6862308569252,-11897.214533192571,1731806955.3873854
580,14645.582862880081,2908.744589537382,-1819.4688082430512,-11775.475179784931,1731806955.3880496
581,15113.498575886246,2492.0000576749444,-2250.432439737022,-11420.803637437057,1731806955.3880496
582,15374.450095294509,2588.343620433472,-2219.424929204397,-11553.26528401766,1731806955.4016912
583,15068.425301620271,2332.5232437644154,-2358.182697360404,-11187.235665504355,1731806955.4016912
584,15018.51633671159,2321.2811044976115,-2517.3490995746106,-10782.41954455059,1731806955.417328
585,15044.53856060328,2315.826460412238,-2476.1391419628635,-10952.29141038796,1731806955.417328
586,15181.239383783657,2361.3597423727624,-2460.5101000480354,-11134.940644423943,1731806955.4180756
587,15237.4818692673,2465.4804270891473,-2389.7231436367147,-11566.016472916584,1731806955.4180756
588,-2135.398726949934,-2049.0612665228546,-2885.953639207408,-2887.819849285297,1731806955.4323604
589,-2130.8061298043467,-2214.7743636094965,-3108.9919228148647,-2754.7355093620718,1731806955.433232
590,-2141.801435674075,-2305.5192961343564,-3357.182903574314,-2525.7171257254668,1731806955.433232
591,-2541.6490995367058,-2510.5967102046125,-3449.868844176177,-2820.2005881364457,1731806955.4469135
592,-2117.738919359166,-2113.9017820046283,-2962.425243551377,-2509.912308512721,1731806955.4469135
593,-1760.6701011396945,-1934.4707318805158,-2950.5566710419953,-2947.2150704315864,1731806955.462566
594,-1576.7062922692858,-1606.999481910374,-2550.3630664334632,-2991.33467020886,1731806955.462566
595,-1530.2155959201045,-1534.8268925654702,-2448.4246133412234,-3094.5727385357022,1731806955.4633381
596,-1505.2293243161403,-1747.7506167427637,-2856.3018424087204,-2711.219903427642,1731806955.4633381
597,-1330.2412753393874,-1393.3259077919647,-2396.7074068039656,-2769.2594108399935,1731806955.4767118
598,-851.2461087144911,-1695.4481158624403,-2479.9856290672906,-2492.4806348192506,1731806955.4767118
599,-1213.1543574766256,-1419.9259462268092,-2512.7321930793114,-2164.4353102059104,1731806955.5087562
600,-1038.8768894914538,-1186.3822836438194,-2246.415787184611,-2406.459195938427,1731806955.5087562
601,-1236.7138572474942,-1118.6115565467626,-1931.8939408110455,-2300.747183790896,1731806955.5095165
602,-1163.591333313845,-1309.729794032406,-2337.099011360202,-1875.696334126871,1731806955.5095165
603,-694.3255164236762,-862.9407758759335,-1902.7563802562654,-1913.1776114827953,1731806955.5102005
604,-319.002246520482,-1260.5781588647515,-2144.5334325917065,-1625.1847454449162,1731806955.5102005
605,-352.9698878680356,-1404.827970105689,-2337.7946327519603,-2012.8235059021972,1731806955.5111985
606,-326.4652168820612,-1526.5841530631296,-2587.934101388324,-2456.9777645398863,1731806955.5111985
607,68.98993448261172,-1810.9698855937459,-2569.937702801544,-1993.0076459869742,1731806955.5221055
