,ch1 - AF7,ch2 - AF8,ch3 - TP9,ch4 - TP10,timestamp
0,-2428.696641074959,-2453.482828031294,-1190.5560119943693,-3822.3030413636006,1731806988.9431815
1,-2533.9785647275858,-2743.796301991679,-1626.669485727325,-3457.043842241168,1731806988.9431815
2,-2329.090015605092,-2425.6411428111605,-1282.9371507498436,-3515.528397748247,1731806988.9440012
3,-1855.3082695184276,-2750.0942935170606,-1398.3298939326778,-3315.440010218881,1731806988.9440012
4,-2334.4249828918837,-2582.6851518005133,-1515.2354266475886,-3164.13861761149,1731806988.944662
5,-2107.732817027718,-2253.2205351539887,-1162.1645614807494,-3226.2209568759426,1731806988.944662
6,-2131.9449293408543,-1990.406545567792,-1580.4144030753523,-2824.645459233783,1731806988.9567764
7,-2299.8234285018407,-1504.0923947296105,-1349.4793207114562,-2887.7431813362055,1731806988.9567764
8,-1871.2365034297109,-1094.69115643017,-972.9518030225299,-2907.6768481000327,1731806988.971843
9,-1390.451794676017,-1370.0076315682381,-1117.5512949093245,-2435.187237448059,1731806988.971843
10,-1638.9513171818107,-1743.6142873917706,-1580.7958728708327,-2233.0493847429752,1731806989.0038936
11,-1676.7392663341016,-1871.3169112787582,-1773.5615362869576,-2622.597364127636,1731806989.0038936
12,-1287.0173816015013,-2319.1699309726246,-2133.0519397277385,-2410.958295585122,1731806989.0046191
13,-1056.5871857316233,-2017.4834212469868,-1810.2237755525857,-2737.4571715667844,1731806989.0046191
14,-1415.3838377306238,-1632.6177966068499,-1557.9899629410356,-3213.1743158805184,1731806989.0055184
15,-1077.2912718863226,-1220.505130839534,-1113.4673241577111,-3180.7886522142217,1731806989.0055184
16,-1401.450840445701,-1437.6998207662255,-1272.3120949757285,-3473.626558644697,1731806989.0062444
17,-1368.3789051375352,-1547.071325020399,-1432.0787511328235,-2983.7782023483887,1731806989.0062444
18,-1504.9862308190204,-1533.5553265805356,-1148.672872390598,-3122.2105992082506,1731806989.0169375
19,-1384.724137893878,-1454.361075068824,-1311.0593284666538,-3576.7542999228463,1731806989.0169375
20,-1552.5502784554847,-1652.5813825703226,-1437.3987588197924,-4056.372159890365,1731806989.0319252
21,-1477.6475621429272,-1690.182336724829,-1512.8325409260578,-4319.025333778467,1731806989.0319252
22,-1340.6456770161167,-1479.725076568313,-1344.2135415738449,-4541.43344424339,1731806989.0475502
23,-989.570048475638,-995.4304717062041,-1699.6555033125915,-4592.039900493808,1731806989.0475502
24,-1179.4241997762583,-1366.4229374607094,-2121.742482261732,-4754.7685574158095,1731806989.0482633
25,-1022.8738575810567,-1243.7635686639696,-2091.122051374521,-5129.121323280502,1731806989.0482633
26,-1357.7332799136639,-1382.382960521616,-2154.876125919167,-5333.499376059044,1731806989.061761
27,-1131.4431532947347,-1209.2368122730404,-1875.9169882242568,-5394.585031985305,1731806989.061761
28,-770.3464628229849,-1028.3247617664747,-1897.5822286675684,-5780.482869013213,1731806989.0777736
29,-489.4855860006064,-585.6945123607293,-1421.8351651541889,-5650.553134702612,1731806989.0777736
30,-456.3201531935483,-511.4612381402403,-1211.9931185403839,-5793.250887461938,1731806989.0782487
31,-517.20572447218,-775.543053811416,-1603.1492549059913,-5378.303377528209,1731806989.0782487
32,-304.07817574730143,-448.6066095349379,-1260.7146652131341,-5431.5595528972335,1731806989.1082249
33,118.45946114649996,-877.5413453029469,-1481.654864945449,-5361.290572629776,1731806989.1082249
34,-358.08046115748584,-664.2211917303503,-1561.2436759024858,-5157.237891147379,1731806989.1089163
35,-85.64557893527672,-303.52093065390363,-1155.2906253621913,-5165.791042346042,1731806989.1089163
36,-349.06169241433963,-397.34380084229633,-1120.0458081797697,-5282.9247089582495,1731806989.1098127
37,-368.89999172929674,-564.1040699165314,-1394.0065695839003,-4894.203247463796,1731806989.1098127
38,-815.1448544422165,-1042.4335343493149,-947.0268165296875,-4829.127118284814,1731806989.1221526
39,-1219.2223451547325,-1141.4212063765153,-773.1925266892649,-5031.302369989455,1731806989.1221526
40,-1502.0055305543356,-1618.4248762750067,-430.333458351437,-4993.521900637075,1731806989.1376505
41,-1610.5149878687225,-1910.8102548108436,-873.5452622002922,-4626.561047034804,1731806989.1376505
42,-1282.2583589078858,-2381.1400732384063,-1189.8809600523673,-4385.5338446404785,1731806989.1382551
43,-1045.2683785157278,-2109.2904853592627,-918.8055314640515,-4772.398445806932,1731806989.1382551
44,-1356.9909097724594,-1645.4680928546004,-557.3404608466662,-5127.840407545678,1731806989.152005
45,-898.3239693567157,-2009.3827979429625,-779.2736040172167,-4797.941962504294,1731806989.152005
46,-1376.0662694964558,-2430.5890304525383,-294.1132123153657,-4426.482009255327,1731806989.1677408
47,-1376.0326103968546,-2578.2047516535968,-503.1380907888524,-3997.6314212363213,1731806989.1677408
48,-1782.095987985842,-2967.180526345037,-872.0829613176174,-3770.3483511791565,1731806989.1684785
49,-1465.8818368823268,-2567.5105077303015,-425.1705264626071,-3670.805304008536,1731806989.1684785
50,-1577.6094781085849,-2720.62762176618,-596.9572210772894,-3202.7194255543873,1731806989.1820636
51,-1380.6813060417771,-2551.9431741647422,-341.1368444082327,-3137.8770401226357,1731806989.1820636
52,-1269.2004982125945,-2442.3584956130944,-355.49806023808196,-3533.2854427378625,1731806989.1980708
53,-1059.5753657962196,-2135.2491309517063,29.1431704047136,-3829.6369851767085,1731806989.1980708
54,-1251.0825528772548,-2449.6269911769778,-318.3290645284578,-3905.2072736313567,1731806989.198194
55,-1013.8251696382649,-2236.933270846959,-136.64659463101998,-4128.741093982942,1731806989.198194
56,-1324.853949453216,-2340.921189114917,-152.13726024748757,-4301.460893636569,1731806989.2121644
57,-1043.0749271917157,-2091.679296467919,245.08873374620453,-4236.487611706369,1731806989.2121644
58,-625.0382598945871,-1833.9945796709508,312.7416539946571,-4520.9818013357,1731806989.2278092
59,-408.1034930148162,-1474.1245763846673,666.6951355510391,-4526.6066108690575,1731806989.2278092
60,-539.458129208535,-1671.5183659959584,507.6428002854809,-4044.7840798776597,1731806989.2282984
61,-691.4476634077728,-2110.4966030949727,812.0725266286172,-3891.4986703437753,1731806989.2282984
62,-443.6475021936931,-1712.9957264545374,1294.7795439595357,-3830.9179009115323,1731806989.2420273
63,-904.1432536877692,-1950.9113320857286,1321.4188513439149,-3523.3934073550627,1731806989.2420273
64,-1335.2433915301226,-1693.692232833244,1302.5734954671934,-3246.15462363977,1731806989.2579975
65,-1047.269224992022,-1311.165915615391,1731.695226232987,-3233.3174170418642,1731806989.2579975
66,-1205.840983113274,-1244.6555348034017,1990.5636213659309,-3131.120910852682,1731806989.2582035
67,-1278.9915562965907,-1529.1216751830652,1529.764937975444,-2913.1445818352513,1731806989.2582035
68,-830.6803988581523,-1105.0188901578076,1889.89299435867,-2944.095993868541,1731806989.2726429
69,-1234.2866621762514,-1257.726485148538,1997.9873227779754,-3213.3276517787017,1731806989.2726429
70,-1551.5479852673598,-778.0132577321492,2319.4466835693456,-3196.1465513822623,1731806989.2735393
71,-1480.0560577143915,-830.8991830055602,2215.806575997267,-3478.366881838534,1731806989.2735393
72,-1129.1618143217638,-1259.6974124251865,1921.6896237819456,-3205.2887368239462,1731806989.2869534
73,-986.4995906120166,-1110.0602752980776,2028.3066917187534,-2784.415355410427,1731806989.2869534
74,-1307.7551268558018,-630.1787523836829,2410.236494893674,-3105.887805851642,1731806989.3025968
75,-911.091987805441,-1074.512526219245,2057.511570472736,-2904.0098761934787,1731806989.3025968
76,-1317.7126104878262,-1366.7707481565885,1767.4561496092938,-3338.7246273430064,1731806989.3033261
77,-1256.8232993092388,-1449.0840762313455,1650.2757342476398,-3771.58625806449,1731806989.3033261
78,-1558.9174581300467,-1686.5415441179648,1484.9048380069435,-3355.988005538471,1731806989.317146
79,-1415.5053844791837,-1529.063706733752,1529.9762423229404,-3640.8786245631054,1731806989.317146
80,-1545.588454687968,-1669.5549185192212,1444.1623678896576,-4075.572806262877,1731806989.3318737
81,-1457.7419446287677,-1673.6912478702143,1421.5172736579552,-4273.817423114087,1731806989.3318737
82,-1238.1593285803683,-1384.7821063431911,1695.7136487592943,-4394.156183988322,1731806989.3477483
83,-951.6306333751418,-965.6702178088017,1246.7816679282114,-4551.708819371648,1731806989.3477483
84,-1163.5277550145984,-1350.339497701265,776.4013608512469,-4739.434967597481,1731806989.348327
85,-1005.5338114365004,-1206.2579819583334,849.1330652395263,-5067.181100214366,1731806989.348327
86,-1305.8066389788873,-1339.5293168793432,822.5947351539508,-5251.632966028992,1731806989.3625016
87,-1115.3223145357333,-1215.802206645254,1037.0368587132543,-5368.981676888652,1731806989.3625016
88,-716.5236926106736,-951.6736422246322,1135.925423391629,-5631.414196679369,1731806989.363264
89,-390.20807172684,-1413.2296553561464,761.1687483317219,-5387.57832941832,1731806989.363264
90,-384.13821409875527,-1378.186792771332,921.632895830553,-5569.358036714606,1731806989.3770964
91,-517.4656475191005,-1757.9287544721738,1300.0640225969255,-5353.706055519637,1731806989.3770964
92,-293.6681642206386,-1399.5060924687423,1694.4794817739166,-5367.278152458835,1731806989.3927343
93,73.57879172824323,-1845.6032291334122,1390.6668389234692,-5372.923531441949,1731806989.3927343
94,-325.7583757904358,-1538.2844300745055,1521.3539029750973,-4963.524163092487,1731806989.393238
95,-7.924848006106913,-1160.530225200113,1931.8958107610233,-4964.440438581631,1731806989.393238
96,-166.95661382190883,-1068.3229917925783,2254.881050734315,-4813.0567681752145,1731806989.4074433
97,-280.7075409241952,-1410.8136799847707,2695.5796418129466,-4664.76973493211,1731806989.4074433
98,-744.8478249250911,-945.9609450423159,3106.8321305904537,-4637.762047402095,1731806989.422794
99,-302.1801765197888,-1252.12785491487,2934.7780331289396,-4198.808119652793,1731806989.422794
100,-472.3998530530371,-1530.7186124641448,2608.6942860423587,-3867.7820947747678,1731806989.4233477
101,-526.4601069125347,-1753.788685221225,2259.0398194850422,-3407.7613105750643,1731806989.4233477
102,-1012.4601061544381,-2030.0176959484816,2297.9198194243945,-3800.458285722416,1731806989.4370394
103,-926.3339500748552,-1940.8921401044354,2229.9920165291987,-3535.6397097599693,1731806989.4370394
104,-1260.114411270246,-1479.6540184691548,2565.1730702579953,-3909.94198697526,1731806989.4526668
105,-850.7243926706724,-1878.701343741268,2276.363036079798,-3645.3870739596896,1731806989.4526668
106,-1252.430786811281,-2217.4614817276597,1921.540027783718,-3161.9133771378547,1731806989.4533377
107,-1239.1354424688034,-2341.0259063136764,1746.8848299030215,-2681.317533331923,1731806989.4533377
108,-1538.5630526212044,-2581.9839205588214,1598.134049065411,-2238.612485927064,1731806989.467241
109,-1398.834780426696,-2381.964721178636,1697.0787122431211,-2468.137626007665,1731806989.467241
110,-1508.3110018796287,-2536.6488532959484,1565.1294319564477,-1980.0657221903093,1731806989.4827466
111,-1390.1600824794732,-2516.659088032786,1541.5568425357342,-2166.585752680432,1731806989.4827466
112,-1220.808062735945,-2250.432439737022,1805.6704473565333,-2318.6874838783406,1731806989.4833057
113,-942.8250389294699,-1884.9918554667383,2242.9358102758415,-2553.573770545423,1731806989.4833057
114,-1162.976119771134,-2270.3604966509156,1834.9669536594301,-2692.984151243698,1731806989.4969778
115,-952.8404910108075,-2072.226206848398,1941.8102855435573,-2975.657009594608,1731806989.4969778
116,-1338.7645073384047,-2310.0277455309406,1740.6822058265097,-3332.1255738711916,1731806989.5126328
117,-1232.6411061957479,-2316.3612661059014,1811.2017593909986,-3596.5159312887117,1731806989.5126328
118,-1693.0115710413083,-1889.0533868186176,2130.0861990628764,-3647.808659180999,1731806989.5135496
119,-1374.7292552622966,-1441.7482624682598,1656.5512863732874,-3503.659825238865,1731806989.5135496
120,-1319.3039379189722,-1293.3116332269274,1960.5490542715415,-3551.031268027611,1731806989.526996
121,-1433.026815771591,-1663.816042037215,2309.98473668145,-3339.57171468297,1731806989.526996
122,-1283.8926951885223,-1417.0032144114375,2581.20415141806,-3485.240817957092,1731806989.541884
123,-869.6576361963525,-1850.4033907265402,2328.22422876535,-3458.3434574757703,1731806989.541884
124,-1268.9087860160507,-1545.575365038123,2416.7738400162198,-3060.63875628775,1731806989.5577378
125,-944.6426303079352,-1120.5862237233669,2890.8529081493616,-3015.98622076679,1731806989.5577378
126,-1187.1863621342927,-1166.8226068755612,2969.2711304202676,-3099.4645276777446,1731806989.5582335
127,-1221.3596979794092,-1389.4233221882023,2653.9695149059407,-2739.5552554419264,1731806989.5582335
128,-1694.2962266760878,-922.5248619699851,3075.495508861728,-2698.1975717819296,1731806989.572644
129,-1212.7373586315662,-1177.3392055509612,3004.8113996991888,-3144.326497596223,1731806989.572644
130,-1472.4117022049613,-1521.3595128250308,2592.990446128417,-2916.936840390321,1731806989.5735133
131,-1438.1916176103987,-1655.5583429350518,2336.4295692681335,-3321.8894676924683,1731806989.5735133
132,-1020.2185286125168,-2007.0752796703018,2195.9626668323763,-2909.720703425817,1731806989.5875475
133,-884.9463472152129,-1886.321389900986,2253.579565549735,-2547.421635118313,1731806989.5875475
134,-1203.9747730353847,-1452.201282844413,-2341.4204657590017,-1938.8389350287616,1731806989.5882888
135,-1670.8638835037127,-1754.0149491685443,-2451.564259354025,-1511.8751265374012,1731806989.6019616
136,-1220.555619488936,-2220.028923047241,-2034.8814358408563,-1229.0769815379754,1731806989.6019616
137,-1224.0131569979712,-2387.1070836177096,-2247.103928776458,-781.6914493385702,1731806989.61757
138,-1534.5669695185497,-2689.6687299329787,-2468.786498649977,-418.6911497893743,1731806989.61757
139,-1315.3433838658966,-2414.477541443426,-2230.070554428268,-526.4152281130664,1731806989.6183982
140,-1444.01277189143,-2581.1966716181487,-2370.3897308157757,-36.45841471804306,1731806989.6183982
141,-1238.067701031454,-2410.71707203798,-2143.0599120091647,12.612812600564212,1731806989.6320772
142,-1109.656366102863,-2268.5279456726275,-2079.7303161094896,-308.41271979594603,1731806989.6320772
143,-870.5608220356517,-1922.4525633729063,-1626.671355677303,-561.878829442896,1731806989.6477711
144,-1084.7205831483006,-2273.563720962964,-2039.2440291391686,-678.7376134083606,1731806989.6477711
145,-951.1893251803704,-2192.8211508695967,-2085.5701698902994,-1125.8052541115321,1731806989.6483133
146,-1218.6445306115784,-2294.4828513651155,-2066.582697815262,-1283.0867467480712,1731806989.6483133
147,-1016.357081908267,-2164.259534907993,-1850.3267227774486,-1387.9741109553725,1731806989.6621244
148,-584.9053934700787,-1872.3397739166394,-1733.912986906711,-1631.422898571007,1731806989.6621244
149,-350.2659402000718,-1477.8719561402686,-1325.2709482982755,-1582.8808670961298,1731806989.677967
150,-383.60527835506946,-1454.4975814172067,-1148.8112486889586,-1777.2041988437995,1731806989.677967
151,-422.7171520916745,-1731.8186429315247,-1625.584914740175,-1415.393187480513,1731806989.6784916
152,-169.46047684224322,-1354.909655447118,-1205.7306560645811,-1402.2567888861522,1731806989.6784916
153,179.2141359266825,-1768.0769730019383,-1437.1163963731378,-1369.6822602720931,1731806989.6918893
154,-245.51321239117533,-1517.9487240654416,-1435.7588126892224,-1045.881722108461,1731806989.6918893
155,91.53592136548832,-1103.3191056279466,-964.4248311235569,-997.3883093330078,1731806989.7077808
156,-227.0175371603109,-1242.2189899822697,-1001.2628456871025,-1208.5468007312156,1731806989.7077808
157,-287.22431659698486,-1511.1608056458645,-1394.107546882704,-921.3337038340978,1731806989.7082531
158,-703.4639619654045,-1946.118650292512,-1842.2186196735129,-774.8549122195691,1731806989.7082531
159,-1126.8281167494133,-2150.93427136587,-1855.472825116478,-1163.0228685205802,1731806989.7222192
160,-1517.2493627737276,-1724.7726714150049,-1593.5414519198239,-1222.4554886664264,1731806989.7222192
161,-1444.7888011322357,-1771.6523173595779,-1712.2570962132886,-1507.802375485655,1731806989.7376266
162,-1113.1363430116326,-2234.726729873102,-2047.1277382457629,-1284.2367659844458,1731806989.7376266
163,-852.3643388012424,-1914.4192582680844,-1666.604137454182,-1591.864106789697,1731806989.7382479
164,-1190.5578819443472,-1486.8327564341016,-1396.119613058865,-2003.9805124569684,1731806989.7382479
165,-752.2472169874236,-1899.3773806462996,-1656.0725791789591,-1712.771332457196,1731806989.752018
166,-1201.0015525706112,-2286.1353946640156,-2100.507330313325,-1328.1319717643782,1731806989.752018
167,-1167.5257080672309,-2412.055956222117,-2263.2696463349275,-1806.5717632458545,1731806989.7676485
168,-1488.1697706682608,-2660.976217472926,-2433.6033898168243,-1388.426638850011,1731806989.7676485
169,-1272.9179587685503,-2373.4433591295965,-2176.090708417818,-1479.3323870729655,1731806989.7685044
170,-1495.1596436854452,-2684.7021427918226,-2521.225505878683,-1184.5085937660187,1731806989.7685044
171,-1282.4416140057147,-2503.885459734127,-2295.12985405745,-1139.2445846023038,1731806989.7819448
172,-1139.339952051174,-2337.4655215558596,-2214.877210858278,-1440.1943340366706,1731806989.7819448
173,-910.6712490604259,-2000.511755248066,-1777.716565137729,-1716.3317172150128,1731806989.8135998
174,-1098.8723645806313,-2359.278488047421,-2193.4120550625958,-1835.6289159515873,1731806989.8135998
175,-888.056074028369,-2168.672616855707,-2079.5152718620375,-2119.7640751851723,1731806989.8141592
176,-1280.2332030818798,-2411.766113975551,-2256.434979165904,-2475.810030766763,1731806989.8141592
177,-1140.8134726337157,-2352.739272974897,-2148.097557249479,-2686.2972101229243,1731806989.81481
178,-705.9248161362484,-2014.5307702319697,-1965.7606048597954,-2866.3808727893047,1731806989.81481
179,-355.4793607383035,-2478.3830819362774,-2351.5911236885004,-2652.542743072845,1731806989.827706
180,-259.7379218726419,-2252.7997964089736,-1865.5088466475718,-2534.025313477032,1731806989.827706
181,-427.12462418945506,-1782.6102242297493,-1730.1562574012205,-2515.9971257406287,1731806989.828339
182,-241.34322394058108,-1464.0922947535291,-1377.4332029302604,-2580.67495557433,1731806989.828339
183,206.42003815434873,-1792.5246990122832,-1437.8830758640543,-2393.3695460935123,1731806989.842118
184,-211.6764675420709,-1569.9669925491326,-1499.6550034321845,-2117.2190732653253,1731806989.842118
185,57.99462861288339,-1235.0720411669463,-1151.3450309089385,-2189.9077688041143,1731806989.8578508
186,-192.89282001461834,-1275.6162965865806,-1048.6810372252949,-2267.013286190573,1731806989.8578508
187,-298.54312381288037,-1613.7687008301727,-576.3615920213051,-2091.8401121660136,1731806989.8582623
188,-733.1419380637817,-2066.5022899662144,-1061.7968663698994,-1976.5520861819386,1731806989.8582623
189,-1190.9543113396503,-2282.6759872050025,-1072.2124877464958,-2369.009707732126,1731806989.8719275
190,-1487.3208133783191,-2726.6825197944418,-633.4436850450002,-2259.3969799308106,1731806989.8719275
191,-1494.0189741989598,-2904.7578561846167,-952.2439769678749,-2731.3386952392757,1731806989.8877132
192,-1132.4473164328374,-3312.919317648746,-1189.4284321577288,-2415.2816199338995,1731806989.8877132
193,-991.7971588992514,-3139.9078057985753,-1017.3481553965248,-1964.2683847774751,1731806989.888533
194,-1189.0114333126694,-3545.5878436421044,-536.4232003944926,-2134.9817281048745,1731806989.888533
195,-742.0765590579249,-3959.4002939392813,-794.2406836398877,-1851.6300779120065,1731806989.902014
196,-283.4320580419153,-4387.3720054687,-1275.019782543648,-1516.4546340331435,1731806989.902014
197,-209.78594811446965,-4465.440547093749,-1381.0852152369916,-1928.159650705289,1731806989.9175122
198,-587.6430002376437,-4827.642378002405,-1729.0604667142034,-1682.6109092645347,1731806989.9175122
199,-344.5962518672459,-4510.833582805935,-1425.9771043551154,-1737.1536102183163,1731806989.91833
200,-425.15182696282864,-4582.907064802013,-1417.7755037522875,-2085.5122014409862,1731806989.91833
201,-170.76757187675685,-4398.578615685925,-1172.1613140623085,-1996.1959106991999,1731806989.9319277
202,-29.382524001877755,-4215.617100003641,-1065.4376589767635,-2282.922820602078,1731806989.9319277
203,187.82712552463636,-3902.957723808009,-665.8443083111197,-2594.869745856151,1731806989.947924
204,-28.52795686200261,-4262.334060300142,-1089.8835150371306,-2707.5473216711544,1731806989.947924
205,131.8931817873381,-4166.194322089199,-1120.6067931731232,-3138.039725770708,1731806989.9482148
206,-348.8971368162893,-4528.74770359369,-1472.826831100043,-2693.1094378922135,1731806989.9482148
207,-156.21749109914526,-4391.1418246240355,-1240.0404982580803,-2796.3325466192327,1731806989.9620628
208,319.219160717912,-4045.180509272963,-1059.1920260507613,-2950.6632581907324,1731806989.9620628
209,597.6752818687819,-3583.9966161870398,-1496.0273004751652,-2790.997579332441,1731806989.9773853
210,592.7666631769389,-3529.40903643379,-1310.7152576707304,-2964.1194182313047,1731806989.9773853
211,557.656482392922,-3807.8333684350364,-1777.4136332413182,-2594.1629047645256,1731806989.978121
212,773.0541503909044,-3466.4796098293737,-1407.9021678692661,-2633.2149401018396,1731806989.978121
213,1193.5834610085003,-3788.1278355685063,-1465.47979763709,-2448.2694074930623,1731806989.9917023
214,762.4982827659696,-3602.4530224683695,-1597.520705472678,-2223.7931323526427,1731806989.9917023
215,1082.702907122206,-3168.192669163458,-2062.199535067193,-2145.8966261255555,1731806990.0077765
216,811.6499179336242,-3252.9874208588153,-1977.9844678649679,-2247.984675216023,1731806990.0077765
217,792.8251315066591,-3533.182595489081,-2382.493917022366,-1966.186953454744,1731806990.0082364
218,393.2878793403506,-3941.071044256445,-2785.6027736463584,-1769.780497431755,1731806990.0082364
219,833.6554892729037,-4211.615407051053,-2909.8011112748645,-1289.927023767028,1731806990.0222285
220,534.5962592661381,-4644.084348277189,-2470.5910003785975,-1187.2630300833844,1731806990.0222285
221,626.5566592765972,-4643.411166285165,-2524.5353173394687,-1398.7955114771612,1731806990.0377097
222,941.0616761003621,-4220.740762942936,-3002.4870518767275,-1300.4529721923172,1731806990.0377097
223,1073.9627609257586,-4020.753352712374,-2790.7264365856536,-821.7382980640978,1731806990.0382583
224,748.6008145306259,-3582.1640652087517,-2503.9995266827755,-1194.888686093036,1731806990.0382583
225,309.618837531656,-3840.7931067445315,-2528.136840996798,-1654.3952340488322,1731806990.051813
226,735.3297795378603,-3415.53095273301,-2231.714240458794,-1510.41843550466,1731806990.051813
227,757.597143874038,-3495.289929138031,-2315.4823896163143,-1917.4448373322375,1731806990.067591
228,513.912742561195,-3703.2695055739023,-2432.0924702347256,-1440.4598669335246,1731806990.067591
229,756.1815917408094,-3380.6975245457143,-2149.593517231755,-1499.7672004308552,1731806990.0684783
230,508.2131350287236,-3685.1309907888062,-2457.875340529252,-1191.1169969877228,1731806990.0684783
231,776.5135578499176,-3438.1629573148675,-2135.0883152536117,-1025.764800246805,1731806990.082049
232,913.0404756823555,-3297.110760536045,-2086.1012356840074,-1355.1041302448139,1731806990.082049
233,1058.3580283606425,-3059.309221853502,-1800.6047528665513,-1799.2752184323035,1731806990.0976892
234,916.0604448965751,-3336.893946314696,-2081.787261085119,-1766.0873462255113,1731806990.0976892
235,1143.1602598559111,-3091.3377250740305,-1914.2827519197017,-2004.5620669000782,1731806990.0985909
236,764.4991292422637,-3295.3305681571364,-2013.1470072483644,-2302.426398871001,1731806990.0985909
237,940.1248311614618,-3193.3958549648523,-1854.5939486268908,-2459.137556764297,1731806990.11196
238,1345.4757578088902,-2959.968129280489,-1836.2329097944312,-2787.0519848791882,1731806990.11196
239,1646.5320943919942,-2475.735232767649,-2255.318619029131,-2599.172500755172,1731806990.1278467
240,1596.8419136307202,-2518.0727702160366,-2192.54065837292,-2901.365766924806,1731806990.1278467
241,1592.7467231792398,-2751.1882142541,-2586.6026970040984,-2438.289484461304,1731806990.1283967
242,1821.1517632231116,-2417.1983186611906,-2229.810631381348,-2498.6103308466263,1731806990.1283967
243,2230.614709871821,-2724.0552400755696,-2275.962866784539,-2307.0040364167653,1731806990.1418428
244,1864.1624826635234,-2445.1933397795074,-2265.6220434070565,-1943.3399046254344,1731806990.1418428
245,2179.9166260724887,-2052.5580729814246,-1821.088184923865,-1925.4800123870373,1731806990.157565
246,1853.1017285445705,-2180.8029823619872,-1815.9645219845697,-2122.0528939580545,1731806990.157565
247,1838.9742564619519,-2357.4178878194652,-2089.1847831974737,-1706.9501781761646,1731806990.158237
248,1401.6004364439286,-1882.583359895274,-1698.2885698787868,-1678.9514171578921,1731806990.158237
249,1840.6478616921231,-2178.1850523930043,-1799.7931945761666,-1196.2593594267964,1731806990.1719663
250,1595.6937643443234,-2535.541842909064,-2229.636726033408,-986.1704794159159,1731806990.1719663
251,1648.9387200134806,-2642.749815038871,-2444.2508849906735,-1334.4636223893613,1731806990.187586
252,1975.4226363953203,-2170.0058911899105,-2854.607667728793,-1176.0470701162703,1731806990.187586
253,2056.5784654337913,-2014.1455605365336,-2678.2975641177036,-752.8474709303118,1731806990.1885424
254,1788.9530945545994,-2467.1689919191413,-2294.5763488640077,-1013.4680091924965,1731806990.1885424
255,2240.338449756615,-2850.3666211790405,-2533.290423135739,-702.0932886316441,1731806990.2018883
256,2680.002958497498,-2365.9878685679287,-2131.0884922510013,-465.4903878849,1731806990.2018883
257,2729.683789508883,-2453.4547787816264,-2241.144398197066,-892.4841155759059,1731806990.217862
258,2395.542427967768,-2763.7206190056168,-2510.757525902707,-560.5474250586703,1731806990.217862
259,2629.0187723515555,-2450.0869988715276,-2222.850677563809,-627.7160282628611,1731806990.2183928
260,2447.2278453554027,-2666.3448438593186,-2423.0119931423105,-206.78280845005065,1731806990.2183928
261,2705.1126468,-2473.418364745099,-2195.1772878416814,-126.27398210391402,1731806990.232068
262,2809.065036018379,-2389.03313209489,-2225.141366286669,-533.8968979744241,1731806990.232068
263,2992.204196948558,-2088.7303853528574,-1801.4630599063821,-856.5586366015486,1731806990.248054
264,2840.1978331995197,-2411.3958638799377,-2202.7599350018427,-926.5078554227948,1731806990.248054
265,3071.501295709051,-2175.525983524509,-2019.3309318250977,-1160.3338804524392,1731806990.2482488
266,2638.772431435995,-2465.353270490654,-2261.695148453582,-1589.6893549654633,1731806990.2482488
267,2920.734708795324,-2205.205829572864,-1860.4936408069916,-1513.5449918676168,1731806990.262142
268,3334.242357246112,-1964.6835136725567,-1821.2003819225356,-1807.8751183804125,1731806990.262142
269,3639.4537226799875,-1498.6639299439266,-2266.0203427523375,-1646.7658381392248,1731806990.2776248
270,3564.69873241568,-1550.7065077773295,-2225.1357564367354,-1980.9277691300958,1731806990.2776248
271,3542.2443730817176,-1813.0978886685334,-2673.639518722892,-1571.8219829271547,1731806990.2782345
272,3804.6862426223233,-1387.7235376583412,-3162.6538773290813,-1487.0515405815095,1731806990.2782345
273,4180.164718373679,-1800.9731330121867,-3337.4212722084485,-1441.3387434231117,1731806990.291796
274,3738.4844035566784,-1613.922036728356,-3464.147782207001,-1189.1311101112515,1731806990.291796
275,4079.299616568722,-1173.5357272960246,-3919.963048906531,-1095.919713565614,1731806990.3075075
276,3791.9331837734208,-1250.813280080445,-3853.1796553977765,-1231.951094653923,1731806990.3075075
277,3683.563972707372,-1570.3896012441255,-4342.865326046012,-1034.170225397218,1731806990.3082156
278,3303.571437709499,-1964.9527864693664,-4744.6614777855575,-825.7736501162872,1731806990.3082156
279,3771.584388114512,-2256.956695209723,-4846.401716180146,-337.9205304463394,1731806990.3221247
280,3460.3330842521973,-2659.3157018925995,-4384.901801547967,-208.04876458505169,1731806990.3221247
281,3508.8994250767864,-2770.461788675748,-4592.896337583661,-552.9124192991294,1731806990.3375485
282,3953.76987455599,-3139.571214802563,-4766.667049124837,-166.09643683210015,1731806990.3375485
283,4036.313206478022,-3012.4146163091063,-4686.397576375864,177.37223519850522,1731806990.338274
284,3724.9048268175684,-2568.1967793721706,-4424.608319377527,-195.52757953340188,1731806990.338274
285,4203.756007294171,-2911.2391028078273,-4590.525241011754,180.45017286203802,1731806990.3517432
286,4638.229534896556,-2421.8040054566227,-4191.479785689618,402.64323907950893,1731806990.3517432
287,4672.782470587175,-2515.8082607928663,-4298.349296873435,-12.8951750472188,1731806990.3675597
288,4404.250173968729,-2769.882104182616,-4476.331135764718,410.5381678859703,1731806990.3675597
289,4615.956560710445,-2472.139318960253,-4231.309720217716,310.37616727268323,1731806990.368292
290,4406.969081236515,-2679.690676851198,-4406.338908093981,749.7882327665575,1731806990.368292
291,4675.052589860279,-2485.1597806559876,-4177.0905206101015,831.7556200954132,1731806990.3818178
292,4790.015244548209,-2333.478788203094,-4120.17859303439,504.7462477697991,1731806990.3818178
293,4936.114436317235,-2062.11538731819,-3783.2659656261094,96.27250465936959,1731806990.3974378
294,4836.616267946083,-2340.900619665161,-4077.8784545855597,127.504409189336,1731806990.3974378
295,5108.751958171837,-2063.697364999447,-3843.523233712185,-37.974944150075316,1731806990.3982105
296,4669.9457564707845,-2382.277002824936,-4145.303240936715,-527.3221538523212,1731806990.3982105
297,4855.542031671852,-2227.0786344637163,-3869.3061040067114,-579.1029386888258,1731806990.4119484
298,5329.823054402601,-1884.2326557757333,-3696.831267800182,-750.0425459635444,1731806990.4119484
299,5623.676343671046,-1438.0457615121268,-3211.517540200148,-618.9571825666353,1731806990.4275784
300,5475.570695575792,-1566.6253919387236,-3238.3195332325995,-1031.9225455238484,1731806990.4275784
301,5517.607171077747,-1736.2822135286406,-3568.4928609207273,-1482.1466617896222,1731806990.428249
302,5761.921745533124,-1379.4078701068647,-3194.231722604949,-1500.0682623772882,1731806990.428249
303,6096.919544164091,-1773.7186120850965,-3334.8426111890003,-1436.968670324888,1731806990.4418547
304,5748.325339244213,-1456.4254998443648,-3276.930260375142,-1009.5729033886455,1731806990.4418547
305,6006.399005636573,-1168.5336111052893,-2998.1450280281715,-1141.2585207284428,1731806990.4574525
306,5726.467493953183,-1234.1613755277358,-2894.3852436575107,-1243.1034763217904,1731806990.4574525
307,5733.6892407676205,-1420.6196976685897,-3167.1529769757763,-837.5487251267768,1731806990.4581769
308,5316.989587704651,-951.5109565765597,-2751.3116309526376,-784.9713415997103,1731806990.4581769
309,5791.143453836907,-1185.265923507046,-2753.2301996299066,-1173.554426795803,1731806990.4718664
310,5442.04436242301,-699.65861376049,-2429.24266646849,-1194.2192440009676,1731806990.4718664
311,5589.792850072496,-650.5387677424587,-2423.9881070307456,-1316.9216216471978,1731806990.4875853
312,5880.564461777452,-222.52778726350516,-2906.898948909249,-1225.643753378652,1731806990.4875853
313,6008.921568156686,-22.95924582798034,-2652.481034723576,-742.3327422048897,1731806990.4886358
314,5738.80916380696,461.7654475290328,-2305.597834033426,-1017.1611603987403,1731806990.4886358
315,6224.792333499063,119.50476318411529,-2485.842312397901,-651.3596757827327,1731806990.5018709
316,6651.76736169029,-369.64423182047904,-2085.4243137920275,-419.4690489801578,1731806990.5018709
317,6654.822859954089,-485.9158514929004,-2248.0258141155355,-896.2558046812192,1731806990.5174873
318,6407.619212782942,-734.2489484506659,-2419.339411385823,-460.03574379952624,1731806990.5174873
319,6694.961336228531,-333.3447628505528,-2006.2992504294962,-403.7109805168584,1731806990.5182295
320,6443.608270056546,-612.5488639925607,-2294.6773261628114,-89.12181594409049,1731806990.5182295
321,6740.201036042534,-353.58323146076873,-1961.4335406110622,103.6775065716356,1731806990.5320132
322,6822.929493012372,-300.24290834274143,-2042.989538944792,-349.95739845372736,1731806990.5320132
323,6986.146206878591,-2.703947667963803,-1636.6045299596153,-706.0463628848083,1731806990.5481975
324,6847.457626871765,-310.4285258720629,-1996.6129095442593,-718.0607914924622,1731806990.5481975
325,7102.442135900725,-16.93800689931959,-1700.7064152001403,-843.7027305038646,1731806990.5483572
326,6740.748931386042,-239.02074606809765,-1856.8173191505484,-1192.6690554693341,1731806990.5483572
327,6882.2667457093485,-128.3571063792333,-1666.217057808768,-1321.1327489973046,1731806990.5619075
328,7348.2152713388205,153.58834143029526,-1575.2159421369433,-1558.8594896807335,1731806990.5619075
329,7644.791207775008,621.324539238587,-2025.6607125001028,-1409.0634068055078,1731806990.5776367
330,7546.40004979074,554.2400837833993,-1986.7956721605733,-1761.2516555828042,1731806990.5776367
331,7540.89865695592,344.1886027720757,-2385.0800578417256,-1277.4226682651788,1731806990.57854
332,7789.229883963708,658.2971902005374,-2034.9150949404575,-1340.6980356154963,1731806990.57854
333,8152.7032808572985,260.5457402630709,-2203.3545790947974,-1304.1666928483173,1731806990.5925756
334,7752.483496949077,524.1638083397411,-2226.396102721803,-935.9174437113106,1731806990.5925756
335,-1731.381074636709,-1994.6700315172784,-2725.5025813584216,-2838.398941320833,1731806990.593213
336,-1977.477711420972,-1994.1838445230387,-2519.8006039955653,-2857.9773175888695,1731806990.607241
337,-2075.4387809103355,-2356.2566488832235,-2085.9647293356247,-2709.8249207441695,1731806990.607241
338,-2500.4297921750695,-2807.845828632824,-1605.419374179095,-2585.4040590683,1731806990.6224892
339,-2079.0309548177756,-3152.9637965438887,-1812.9838217198849,-2190.853963492904,1731806990.6224892
340,-2380.652016294189,-3532.9582014917396,-2255.5542327263393,-2015.4451757711358,1731806990.6232207
341,-2295.2401811061427,-3603.144903960172,-2414.514940442983,-2296.420119542163,1731806990.6232207
342,-1820.2223980841227,-3892.1942917355336,-2471.1370257721283,-2778.1379333348013,1731806990.636907
343,-1790.7482465333305,-3857.611436845269,-2509.2428664206527,-2576.6657828218304,1731806990.636907
344,-2028.3310010684654,-4298.233359974809,-2076.2596889506094,-2765.8953708298504,1731806990.6525152
345,-1578.2209517513402,-4707.8646021215245,-2358.3192037087865,-2505.308491667267,1731806990.6525152
346,-2033.3443369590677,-5071.611011711881,-2710.2587491390295,-2062.891416558996,1731806990.6534083
347,-2006.8882846725173,-5186.222115803976,-2852.1860825074837,-2507.00640624715,1731806990.6534083
348,-2200.5664836778305,-5315.779730068985,-2863.4693606738,-2889.209222118836,1731806990.6670504
349,-2087.3653218690306,-5190.214459006675,-2876.6936469171196,-3251.108121131081,1731806990.6670504
350,-2320.1460448610596,-5486.666978744324,-3151.234092814382,-2922.2138392277993,1731806990.6828077
351,-2332.2895000171848,-5719.142899889965,-3558.726112186443,-2456.5046671954915,1731806990.6828077
352,-2094.9498389791697,-5371.240576461889,-3175.8594640726224,-2475.9558868650347,1731806990.6834023
353,-1871.6628520246595,-5004.737860604189,-2694.238887678832,-2767.1725466647185,1731806990.6834023
354,-1985.0285694315098,-5236.0338433138095,-2922.9805187187158,-2643.9129239250906,1731806990.6970923
355,-1750.4040757613257,-5017.909788248129,-2792.6954939123243,-2915.7737315041013,1731806990.6970923
356,-2144.00984659791,-5241.877436994575,-2947.8153243744746,-3277.6464512166567,1731806990.71264
357,-2092.9115935033187,-5275.564585845452,-2980.8966094325297,-3626.072360638529,1731806990.71264
358,-2517.633331971243,-4807.454398041591,-2586.668145253323,-3582.437077905517,1731806990.7133572
359,-2224.7337171914987,-4360.3026095894165,-2096.9301160057075,-3458.947451318614,1731806990.7133572
360,-2213.6860527223907,-4268.820916773286,-1787.0120864775963,-3552.659994458314,1731806990.7269578
361,-2281.4119010199793,-4613.628472988028,-1449.0878161313012,-3295.8092753514647,1731806990.7269578
362,-2050.553486605175,-4260.3332138238475,-1028.1602061684243,-3288.6828959858976,1731806990.7424874
363,-1782.4587582815439,-3807.004980594851,-1393.0753344949335,-3457.4701908361167,1731806990.7424874
364,-2065.350400779862,-3363.7744772462174,-1149.8584206765518,-3810.0623488086276,1731806990.7431571
365,-1759.4396740542725,-3020.835001059342,-782.5011376789771,-3854.256746585015,1731806990.7431571
366,-1986.1673689680174,-2961.3967710635625,-468.84694809513167,-3767.509767112788,1731806990.756781
367,-2120.6298620249145,-3352.999825473875,-97.8787916903384,-3678.945196262095,1731806990.756781
368,-2520.791677483823,-3801.503587760031,-582.3641314501874,-3546.9585169758648,1731806990.772571
369,-2084.141528107226,-4131.123410254717,-732.2107029748149,-3099.896486122627,1731806990.772571
370,-2404.9669758561067,-4511.652620896231,-1184.1271239705384,-2930.2172251329757,1731806990.7734854
371,-2300.339534695726,-4583.69057384273,-1365.9498401163146,-3223.3019649605267,1731806990.7734854
372,-2780.4379718075506,-4830.811943214852,-1374.3459155168384,-3652.2049115789123,1731806990.7871587
373,-2802.0171945518814,-4851.58708746871,-1490.0771196456626,-3530.0261199264787,1731806990.7871587
374,-3030.014585500583,-5270.824262651615,-1022.4325493862852,-3676.8302828371525,1731806990.8032715
375,-2603.0769563089125,-5741.988078769296,-1399.5752806179225,-3497.062641717028,1731806990.8032715
376,-2116.054094429128,-6106.0598596557975,-1751.8140180446208,-3068.2625423474237,1731806990.8033085
377,-2087.395241068676,-6214.840459716972,-1904.1457530898042,-3523.002587809693,1731806990.8033085
378,-2288.156810590066,-6391.038366329391,-1978.7006587064825,-3965.470151567366,1731806990.81681
379,-2115.6744945836253,-6156.4250923590735,-1830.1013438170776,-4165.315445599612,1731806990.81681
380,-2357.1878839721903,-6427.562229296658,-2061.9171726205386,-3796.112521973904,1731806990.8326528
381,-2133.829838918522,-6292.005815502722,-1957.2897314601578,-3807.3135223411955,1731806990.8326528
382,-1996.4090849966742,-6139.62920165807,-1888.6307781236246,-4119.232398345601,1731806990.8333519
383,-1906.1092005665414,-5904.651287442073,-1574.4305631462485,-4590.386864713393,1731806990.8333519
384,-1922.166461026296,-6046.062514616642,-1669.702644567471,-4329.255830107257,1731806990.8470228
385,-1747.058735250961,-5908.492164696567,-1647.8672386761755,-4703.507618673146,1731806990.8470228
386,-2142.7850293624215,-6154.046515987255,-1808.290247275494,-5070.563839724287,1731806990.8625655
387,-2054.49721110845,-6166.580790688749,-1793.4727636510506,-5366.73586696526,1731806990.8625655
388,-2496.08215847658,-5722.544338899665,-1452.8221062370576,-5364.276882744394,1731806990.863351
389,-2214.0506929680705,-5269.734081814531,-1929.6705702873878,-5234.448125732597,1731806990.863351
390,-2230.6838980210014,-5192.961415524129,-1656.9271463188343,-5367.313681508414,1731806990.8768487
391,-2187.147722636815,-5392.601015058812,-2067.6616589524783,-5857.281714603305,1731806990.8768487
392,-1984.2488002907485,-5130.563054713421,-1824.7794661801308,-6015.62533882726,1731806990.8924873
393,-1759.8772423490882,-4719.806102680042,-2211.0344636538066,-6216.227962600533,1731806990.8924873
394,-2044.2498852298595,-4279.178569700569,-1925.6913167345338,-6522.841790517792,1731806990.893326
395,-1715.630485973321,-3912.3747918964364,-1532.5324639426544,-6542.943752779625,1731806990.893326
396,-1985.5652450751513,-3928.7854729020037,-1361.929447663948,-6589.868277523667,1731806990.9071584
397,-2083.720789362211,-4248.298215766437,-894.1053622066975,-6404.122406324372,1731806990.9071584
398,-2440.9335937299766,-4655.229250145145,-1323.1840841230005,-6215.341606311034,1731806990.9227679
399,-2102.9345253845677,-4165.263087000232,-1725.4888622565195,-6007.92862471845,1731806990.9227679
400,-2389.925098234322,-4502.506695554592,-2084.274294555653,-5760.97929074429,1731806990.9234283
401,-2288.7271453333087,-4538.701447325759,-2232.980196593795,-6017.263415007852,1731806990.9234283
402,-1824.850524279289,-4824.1530513437465,-2313.6124396384694,-5536.437567354646,1731806990.937049
403,-1822.0082003129646,-4800.759977120906,-2353.4685534662567,-5354.192242513876,1731806990.937049
404,-2059.355341150891,-5235.723431617487,-1934.0873921350576,-5521.909925976768,1731806990.9529092
405,-1669.9513479145244,-4748.218122643419,-2347.1780417407863,-5384.937960049603,1731806990.9529092
406,-1210.6261851065792,-5184.810303570703,-2796.4447436179034,-5050.03178896755,1731806990.953354
407,-1136.5387669843622,-5193.945009212475,-2805.8001033570617,-5375.580730360467,1731806990.953354
408,-1349.3428143630736,-5392.148487164173,-2927.2870135176927,-5855.155581478495,1731806990.966988
409,-1223.7663236008957,-5225.107725593261,-2870.311507642735,-6151.819405563641,1731806990.966988
410,-1493.3701015566476,-5526.986840166617,-3170.1748161399737,-5847.694481066894,1731806990.9825337
411,-1275.0646613431163,-5415.552781086881,-3076.1761706536636,-5866.554796543438,1731806990.9825337
412,-1084.0848001558334,-5155.212735321373,-2822.2276139124297,-5999.70271476591,1731806990.983287
413,-992.0084632467479,-4946.877868389711,-2557.01260855468,-5545.959352641832,1731806990.983287
414,-1000.268032298889,-5064.731465743389,-2630.7578258309513,-5246.801015286241,1731806991.013226
415,-822.1309875594452,-4962.678945702501,-2687.1143782632425,-5692.720506703015,1731806991.013226
416,-1226.4104328695685,-5193.9057402629405,-2814.1587797580287,-6044.903145630378,1731806991.0139613
417,-1182.0776587948203,-5240.981730955187,-2889.8150859116577,-6426.550586358644,1731806991.0139613
418,-1585.2575735179707,-5728.806801375467,-2456.897356690839,-6336.432087076362,1731806991.0147188
419,-1212.4362966851331,-6185.358828366268,-2809.016417318955,-6092.618659215048,1731806991.0147188
420,-1314.1372661301866,-6190.28614655789,-2658.347067804076,-6330.549224446062,1731806991.0271697
421,-1372.3637685403228,-6576.382198283449,-2375.11509440979,-6118.558605307713,1731806991.0271697
422,-1093.2494249972515,-6133.269501783419,-2822.6539625073783,-5998.262853282969,1731806991.0427947
423,-908.6105641848408,-5777.601276097354,-2362.0965026640333,-6328.389432221651,1731806991.0427947
424,-1196.0050462298095,-5354.771927007008,-2117.510785461869,-6668.183652545791,1731806991.0433664
425,-880.4117185189389,-4969.657599019818,-1694.8216826198623,-6664.987908033654,1731806991.0433664
426,-1116.4816835219972,-4944.850842613727,-1474.9342647250742,-6675.874756804667,1731806991.0569196
427,-1195.0738111408427,-5251.988256524783,-1952.293225119356,-6451.611655961722,1731806991.0569196
428,-1628.9807438999414,-4790.505171442404,-1572.65037076734,-6422.18051326042,1731806991.0727286
429,-1241.4242612416856,-5133.394158979878,-1759.1816209573299,-6008.897258806974,1731806991.0727286
430,-1571.4124638820067,-5527.087817465421,-2206.4979650075547,-5857.281714603305,1731806991.073271
431,-1430.8707634471357,-5603.5799912591465,-2381.9852906283922,-6125.365223227069,1731806991.073271
432,-995.9035690505989,-5940.399121168535,-2545.987383485306,-5724.70039122412,1731806991.086888
433,-1053.1202984726988,-5996.520059903618,-2692.1688530533575,-5662.984562155325,1731806991.086888
434,-1215.5460234982893,-6331.160698088817,-3106.903188689612,-5697.053180801682,1731806991.102595
435,-858.6455007768236,-5907.637597556692,-2660.1216503330506,-5659.846786092501,1731806991.102595
436,-402.0093260370195,-6321.382729654666,-3047.0516997487284,-5284.875066785142,1731806991.1033309
437,-357.70647116191685,-6382.879774576053,-3145.4054587334394,-5679.174589063507,1731806991.1033309
438,-562.0246855411679,-6580.383891236037,-3271.107236144133,-6168.948147360701,1731806991.1168847
439,-378.07209637062624,-6320.073764670175,-3066.4655204187147,-6324.752379514743,1731806991.1168847
440,-619.5742660593241,-6546.814549233764,-3266.6717147966847,-5933.136235454585,1731806991.1326675
441,-440.30216168332845,-6540.999004802667,-3352.225666183047,-6107.1575202927925,1731806991.1326675
442,-276.65722927218303,-6324.599043616559,-3151.5819035102613,-6310.3051459859125,1731806991.1333616
443,-100.62761815777048,-5968.025762141217,-2684.1467676484026,-6642.253056203015,1731806991.1333616
444,-133.44337031897157,-6147.138920769095,-2876.349576121196,-6448.986246192828,1731806991.1469939
445,7.784601757768542,-6079.11575042503,-2963.294770291075,-6931.096749480814,1731806991.1469939
446,-461.7299184794538,-6356.69486503629,-3174.838471384719,-7361.020688787103,1731806991.1626542
447,-348.17159622488543,-6318.0729181938805,-3112.7449124203995,-7608.585236303974,1731806991.1626542
448,-787.2358510228805,-5906.356681821868,-2823.0990106021054,-7646.612539053429,1731806991.1633253
449,-495.84715582523495,-5476.008263870608,-3302.075477727223,-7531.694763164967,1731806991.1633253
450,-541.0045778402127,-5414.097960004117,-3066.861949814018,-7700.553116114344,1731806991.1770608
451,-491.697736824397,-5630.70174573781,-3496.7148310211487,-7223.538226515986,1731806991.1770608
452,-236.67956869583577,-5281.920545820147,-3119.9554395349696,-7251.774471181445,1731806991.1926794
453,-23.931619816459715,-4922.20948828198,-3565.13256081054,-7525.615555786993,1731806991.1926794
454,-258.30180028965697,-5391.3855475732125,-3206.704288957175,-7743.331961757503,1731806991.1934505
455,10.194967279210687,-5088.148849315941,-2927.0252205207944,-7868.192261678167,1731806991.1934505
456,-282.81497454922646,-5115.966225186363,-2772.0549860568717,-7948.667428924702,1731806991.2068555
457,-352.8427312695421,-5391.909133567009,-3193.3678057151847,-7672.288822199218,1731806991.2068555
458,-495.7667479761876,-5850.985593027901,-2741.982450513169,-7572.670977029484,1731806991.2226605
459,-67.29949970263988,-6242.145469293464,-2986.728983413428,-7230.169069137424,1731806991.2226605
460,-358.39648270374164,-6579.796726942994,-3356.9622494769283,-6994.308538531885,1731806991.2231665
461,-192.0756518743001,-6549.0210902076215,-3418.292868850287,-7143.829738760367,1731806991.2231665
462,254.73206578195095,-6871.5687618860975,-3538.732607023325,-6703.92587642232,1731806991.2370667
463,172.63004205469042,-6972.632078388706,-3728.84294147091,-6689.033594798762,1731806991.2370667
464,-7.575167360249907,-7333.739988560323,-4185.415537911467,-6752.59506449569,1731806991.252705
465,390.20620177686214,-6845.3445833968,-4605.1445099385455,-6613.910224388819,1731806991.252705
466,-95.96209296304733,-7213.500335034914,-4980.376152292825,-6216.155034551397,1731806991.2533722
467,-67.53137349989265,-7278.482966715004,-5050.246833215002,-6597.192871586885,1731806991.2533722
468,-313.87858358118683,-7528.046490758192,-5256.016128777061,-6171.601606379263,1731806991.2669244
469,-102.28065393818542,-7226.455348481424,-4972.6308194845915,-6254.76576169394,1731806991.2669244
470,-337.1968598049134,-7454.291923732031,-5174.4638703432865,-5863.587185928598,1731806991.2829142
471,-165.0380451446399,-7433.404582479503,-5248.775682462845,-6030.031433456577,1731806991.2829142
472,-36.9633012120612,-7239.212147230282,-5113.984078209847,-6281.502306477167,1731806991.2832928
473,96.18461701041088,-6965.9301776681095,-4696.618722954765,-6674.530262770597,1731806991.2832928
474,18.609742179512978,-7187.9661680874415,-4974.1024701171555,-6560.018266027328,1731806991.2969227
475,226.41167336748913,-7038.46179740876,-4959.930119235069,-6945.459835260641,1731806991.2969227
476,-248.92213120078668,-7347.298995849676,-5193.008164273575,-7407.255201989319,1731806991.3126764
477,-163.19614441646263,-7338.203559157439,-5174.757452489808,-7700.244574368,1731806991.3126764
478,-565.2391295530833,-6856.109885419253,-4792.597645467613,-7653.654770669993,1731806991.3138394
479,-286.56235430482775,-6457.718912589364,-4357.510774272494,-7595.385259410366,1731806991.3138394
480,-355.0043934439309,-6423.165976898745,-4123.673529542983,-7784.173539223615,1731806991.3269627
481,-326.323100683745,-6639.32471453771,-4594.115544969216,-7331.849469132721,1731806991.3269627
482,-110.55518259014934,-6292.002075602766,-4228.545934150461,-7366.42858412303,1731806991.3425093
483,72.50170054100454,-5948.724138469901,-4696.24099305924,-7681.191654043738,1731806991.3425093
484,-155.61910710623488,-6434.1799822682515,-4378.136322528124,-7913.0112227471545,1731806991.3431845
485,185.95156569685787,-6006.195181088988,-3908.0065887481906,-7879.22683649743,1731806991.3431845
486,-44.34399377461523,-6000.921922151465,-3688.979347843211,-7898.210568672512,1731806991.3567307
487,-117.9246554528363,-6266.217335358262,-4091.1850186279044,-7604.635901950765,1731806991.3567307
488,-453.6853936747648,-6651.09043979831,-4495.849673633464,-7373.403497540392,1731806991.3726003
489,-79.18116186186671,-7081.766098995693,-4813.397099071182,-7088.324013567995,1731806991.3726003
490,-410.5568673857488,-7447.489045712631,-5200.759106931742,-6888.968646429945,1731806991.373211
491,-362.2747589577921,-7590.095170923043,-5585.486355273519,-7339.439596092794,1731806991.373211
492,-63.346425449475646,-7131.443190107122,-5994.968001422007,-7190.754263504408,1731806991.3871193
493,-86.63852237351239,-7117.47466377262,-6013.128955606837,-7013.901874399744,1731806991.3871193
494,-259.34149247733876,-7483.732416183222,-6455.878881811164,-7063.375140963588,1731806991.40266
495,-729.7685483037494,-7828.098664203193,-6666.940135810524,-6732.83717302978,1731806991.40266
496,-258.36350863892585,-8258.957578498404,-7093.5318242562935,-6392.747500609141,1731806991.4034011
497,-257.8287029452622,-8370.21025243029,-7285.009092137683,-6873.420012364164,1731806991.4034011
498,-435.51508974004537,-8503.747120248154,-7304.695925504435,-7260.593155276962,1731806991.4171257
499,-249.33726009586826,-8314.936401035171,-7216.679249997251,-7529.970669285394,1731806991.4171257
500,-538.4371365206316,-8534.81446918007,-7375.570769564714,-7114.067614912987,1731806991.4329045
501,-266.7109653400257,-8371.21628551837,-7252.931970217731,-7078.875156329945,1731806991.4329045
502,-124.25256617786363,-8209.183249988127,-7171.751831829548,-7371.533547562547,1731806991.4334471
503,-17.8411927386187,-7957.85823306581,-6803.132332596928,-7831.460834263358,1731806991.4334471
504,-67.65105029847473,-8127.3822882073,-6951.978480883408,-7577.843258668203,1731806991.4473803
505,148.86110788630322,-7981.1054511903785,-6924.4546871595085,-7953.220757120755,1731806991.4473803
506,-327.9424773645587,-8291.816339509096,-7182.3581881038845,-8436.602826393675,1731806991.462526
507,-225.42807967914268,-8213.543973336462,-7067.262766967528,-8632.167804926634,1731806991.462526
508,-645.9050316973589,-7778.195309144445,-6754.680058720987,-8647.70334934257,1731806991.4633255
509,-359.88683283608407,-7362.679334417451,-6293.241852438077,-8565.139447970781,1731806991.4633255
510,-436.13404318271205,-7333.23884196626,-6060.956666190177,-8753.621055987664,1731806991.476751
511,-425.1873560124077,-7604.097356357146,-5622.215912738349,-8376.741987702902,1731806991.476751
512,-131.03861464746296,-7176.138734477572,-6089.037705007475,-8261.240787421353,1731806991.4924924
513,81.372743235901,-6798.244283354841,-6509.52400677558,-8532.138570761774,1731806991.4924924
514,-196.4849939220585,-6382.640420978889,-6314.551802385598,-8883.133791453205,1731806991.493509
515,172.84695625212044,-5939.299590581562,-5835.996074005496,-8823.185065113474,1731806991.493509
516,-132.2840013327077,-6023.611895182636,-5729.2032307707705,-8960.895661281887,1731806991.5067482
517,-287.0504112490453,-6423.184676398523,-5354.296959712636,-8854.805919238832,1731806991.5067482
518,-631.2334041711874,-6829.614564183168,-5782.833396135364,-8651.267474000342,1731806991.5228016
519,-237.8912962814793,-7250.091516201384,-6096.472626119386,-8365.36895193765,1731806991.5228016
520,-613.1061090859585,-7668.730307391379,-6561.1047069644555,-8239.71579322638,1731806991.523226
521,-458.96613241219893,-7660.337971890811,-6651.397111594677,-8421.781602869276,1731806991.523226
522,3.343470560386777,-7967.2117228549905,-6774.237865539268,-7971.780010650866,1731806991.5370178
523,-104.45166586246341,-8102.9177326471545,-7019.73611833062,-8035.549044795334,1731806991.5370178
524,-280.28867212915793,-8441.758278482594,-7439.250046110246,-8048.240395294968,1731806991.5685248
525,91.42559431679547,-8006.016924795229,-6966.77165515814,-8000.809114106931,1731806991.5685248
526,-385.64726373087615,-8349.422018526588,-7262.059196059592,-7541.932739293668,1731806991.5690873
527,-339.7923503741622,-8429.2744924305,-7364.826036992017,-7946.5880445493385,1731806991.5690873
528,-605.4748432263732,-8714.748535848223,-7644.91088457359,-7588.374816943426,1731806991.569684
529,-352.71557467104867,-8365.739202033263,-7279.748922850005,-7598.86149641918,1731806991.569684
530,-607.5991064012051,-8614.440679136664,-7449.792824085336,-7201.153055331204,1731806991.5826647
531,-204.63610587548465,-8216.586381950416,-6982.926153016742,-6827.155579962302,1731806991.5826647
532,-119.88062312966213,-8186.190345060546,-7124.126075843815,-6351.131763852201,1731806991.5832694
533,-68.85716803418472,-7985.436255339067,-6821.639227527659,-5904.602668742649,1731806991.5832694
534,-142.7744207084179,-8197.453053777106,-7044.486776237376,-5718.752080344595,1731806991.59755
535,74.53059626696631,-8023.901126383338,-6968.467699788045,-6039.265246447176,1731806991.59755
536,-2262.7741095907986,-2348.9937631692737,-3144.1507222983055,-3442.233838416636,1731806991.5981767
537,-2059.076718604192,-2156.8975418452173,-2801.441249958705,-3420.6994944717735,1731806991.6119552
538,-1590.3232680079527,-1881.9980655522086,-2762.705236167647,-3685.241317837499,1731806991.6119552
539,-1306.9042996158823,-1456.9453459382057,-3250.4742080885917,-3579.288082142826,1731806991.6278026
540,-1458.0056075756438,-1539.9804747044109,-3211.792422846891,-3959.656477086246,1731806991.6278026
541,-1360.7046304284595,-1654.2493779505603,-3512.065250389278,-4311.745618514717,1731806991.6284647
542,-1137.3297558249906,-1345.731940955855,-3168.834062005859,-4372.792005491443,1731806991.6284647
543,-900.6389674292877,-883.3232306344435,-3460.7164239976555,-4520.718138388824,1731806991.6418667
544,-1205.3379665692337,-515.8817998878658,-3349.6974938130006,-4944.345956119709,1731806991.6418667
545,-879.1569820838049,-159.99479005439207,-2960.559033473488,-4974.556867961772,1731806991.6575341
546,-1219.880567546934,-289.7094801175408,-2940.51316971099,-5192.817429375835,1731806991.6575341
547,-1290.6301249586977,-537.5545201310888,-3322.751514632255,-4890.816768053919,1731806991.6581361
548,-1677.6125329737552,-1014.8330726763234,-2915.2389258104376,-4816.742439581547,1731806991.6581361
549,-1198.5593978995457,-1249.7025297936052,-2918.429060472641,-5220.872288893443,1731806991.671826
550,-1602.175010967534,-778.7818071730435,-2572.8922237665392,-5252.184601272456,1731806991.671826
551,-1415.9167734743096,-744.7225382765755,-2651.796633031685,-5405.198868059553,1731806991.6875117
552,-1130.0219913115725,-329.434697446879,-2170.4546791845933,-5324.875166761223,1731806991.6875117
553,-1149.3049154831097,-275.1425697901286,-2087.8963876627386,-5076.9908577981405,1731806991.688228
554,-1294.6168583114631,-605.7216766234487,-2523.723759049084,-5095.2509193317965,1731806991.688228
555,-1768.286407399457,-974.6067087529227,-2734.8897302472033,-4761.118907540571,1731806991.71829
556,-1347.4148959359154,-502.93613619124517,-2332.8336554607376,-4570.823448045179,1731806991.71829
557,-1377.1564503335394,-676.9218919798732,-2546.2005577827804,-4106.208196749911,1731806991.718998
558,-1600.7912479839288,-898.5446234541014,-2747.579210796859,-3669.034461379517,1731806991.718998
559,-1361.1889474727213,-544.5761822978966,-2368.056033243425,-3670.6089592608623,1731806991.7197876
560,-1672.1896780380048,-870.5552121857181,-2704.585320906248,-3425.338840366807,1731806991.7197876
561,-1222.9005367611535,-465.7858399813995,-3152.4626499498263,-2991.132715611253,1731806991.7319863
562,-1120.1112564289942,-420.1758900717832,-3281.380741322413,-3480.382687914651,1731806991.7319863
563,-1060.2055389387533,-233.45764488400891,-2974.2751165609807,-3026.530868691858,1731806991.7477808
564,-1121.9568970571272,-425.1967057622969,-3176.7850893116556,-2816.8608574760146,1731806991.7477808
565,-927.5438077105209,-259.0759595804848,-3141.5234425794333,-3182.017209349666,1731806991.7485347
566,-1352.3553037773818,-502.16197690041736,-3297.118240335956,-3583.6749847908504,1731806991.7485347
567,-1138.167493415065,-327.19823727337644,-2999.2763477647677,-3599.986558447592,1731806991.7623277
568,-1600.8679159330204,-0.8003385905176401,-2874.4852359932847,-3783.3127143755555,1731806991.7623277
569,-1337.8575815991499,397.5756746395491,-2423.847860782407,-3714.3246498429216,1731806991.7775996
570,-1518.9603670034558,284.1314193336293,-2433.1433821222745,-4136.067557996139,1731806991.7775996
571,-1391.7850690102205,175.0460174260661,-2684.6553940423764,-4458.544171575457,1731806991.7784216
572,-1126.4410371039994,557.2320037479512,-2288.8973107812926,-4461.509912240319,1731806991.7784216
573,-895.9136038352735,1042.6149194971658,-2546.181858283002,-4590.108242166694,1731806991.791818
574,-1208.9376202765852,1378.2784203202464,-2490.244174645748,-5058.2969678696245,1731806991.791818
575,-903.7973129418679,1700.5325098522007,-2172.2273917635903,-5158.361731084064,1731806991.8076131
576,-1252.4569661109708,1578.3574580997229,-2154.3170108757913,-5384.0048550106585,1731806991.8076131
577,-1269.3108252612874,1383.2898862608708,-2411.743674575817,-4958.875467447564,1731806991.808324
578,-1623.7972425613552,926.3526495746337,-2005.8990811342373,-4875.451389085967,1731806991.808324
579,-1223.7046152516268,561.4281714982353,-2161.280704593286,-4446.999100412242,1731806991.8218975
580,-1610.1877466225997,94.17816068418324,-1770.191886426881,-4453.72531048255,1731806991.8218975
581,-1445.6732874717563,109.21629840601236,-1871.2028443301097,-4627.750335220713,1731806991.8375778
582,-1079.8157043564133,-340.2074792692438,-2197.9354640590027,-4372.350697296672,1731806991.8375778
583,-1062.597204960417,-270.06565560027957,-2122.7522552497685,-4147.986619154923,1731806991.8383663
584,-1279.9134416356683,-680.7272401847877,-1723.095326284878,-4289.786795924883,1731806991.8383663
585,-1734.0756725547835,-974.8815913996659,-1821.9296624138951,-3850.354160981253,1731806991.8520925
586,-1331.6044688732363,-545.7112419344485,-1523.696950297337,-3759.4091438087635,1731806991.8520925
587,-1352.194488079287,-702.9160666218959,-1719.561120826751,-3286.0200872174464,1731806991.8678143
588,-1562.1973503911868,-901.1868627727963,-1892.9391428725794,-2814.2709767566994,1731806991.8678143
589,-1337.2180587067269,-615.0078482134268,-1626.3796434807591,-2924.8672982463613,1731806991.8684306
590,-1676.8739027325064,-970.8275398476981,-1995.4610203579068,-2726.5665828958154,1731806991.8684306
591,-1272.8188514197245,-624.5726423501037,-1580.0291933799163,-2387.1931013166904,1731806991.8820431
592,-1106.3241152423434,-469.9259092323482,-1550.182921783533,-2730.418679850176,1731806991.8820431
593,-1127.9968354855664,-394.2303341291845,-1431.373779991176,-2477.8258368428797,1731806991.8975377
594,-1152.3342344472185,-503.336305486504,-1541.8934335317463,-2163.1057757716626,1731806991.8975377
595,-880.0564280231483,-271.77852977998555,-1395.059351421427,-2424.262989677489,1731806991.898364
596,-1320.7961580012925,-588.2264246307313,-1622.8005592231639,-2901.8781332187355,1731806991.898364
597,-1161.0538111939095,-425.58939525764436,-1353.7072776113637,-2941.9044124945067,1731806991.911832
598,-1576.8820675672032,-59.64205454336479,-1152.2743960479274,-3047.6426039417274,1731806991.911832
599,-1311.1752653652802,356.6219001747668,-688.8091639890336,-2967.3039430435747,1731806991.9277852
600,-1450.8362193605863,282.39797570416704,-623.1178212673403,-3319.2603180236183,1731806991.9277852
601,-1349.9187589562498,126.86301634693518,-1001.9135882793926,-3741.251929523889,1731806991.9284031
602,-1067.7376974495128,539.6002454068512,-522.7632158063352,-3679.1714602094144,1731806991.9284031
603,-845.6325188810006,967.0595906423405,-834.7774592596106,-3868.2551921191625,1731806991.9418027
604,-1100.9685785057954,1410.256434891373,-670.1433233101852,-4214.841070762835,1731806991.9418027
605,-787.8024458661675,1748.08346783882,-322.16246198304,-4300.963486942463,1731806991.9576259
606,-1121.3005446149036,1620.5005207504146,-321.5640779901296,-4543.656814767048,1731806991.9576259
607,-1148.8205984388478,1436.1028834851459,-589.2567670685239,-4122.592698455788,1731806991.958204
608,-1500.8648610678501,1032.4330418678,-1071.5505254543386,-3945.2896514064632,1731806991.958204
609,-1069.218697831966,693.568186682649,-1200.4760966268368,-3497.5731380609795,1731806991.9726737
610,-1446.11272571655,1180.5517796128988,-787.9202527147718,-3484.820079212077,1731806991.9726737
611,-1205.5847999663092,1308.8901864923537,-741.4033770659007,-3492.8795636165887,1731806991.9876747
612,-865.1959355492145,1777.6623365883715,-1180.92389965849,-3352.5080286297016,1731806991.9876747
613,-869.736174095422,1822.7430906542577,-1078.2486862749793,-3122.421903555747,1731806991.988434
614,-990.9856006088667,1493.9853150993586,-1500.8031527185813,-3090.4794180341996,1731806991.988434
615,-1415.18749298295,1198.0956503050402,-1608.9797589369118,-2665.385559520684,1731806992.0019832
616,-1017.2527879476547,1636.9037219560705,-1298.985061459709,-2557.940103743691,1731806992.0019832
617,-1015.5473935678601,1536.4668386960402,-1429.1391897676513,-2990.2669287715107,1731806992.017644
618,-1261.8572046495974,1259.415049978532,-1703.2888161195442,-2623.455671167467,1731806992.017644
619,-988.3078322405927,1655.0384968412109,-1285.9776894138195,-2579.610954036936,1731806992.0182564
620,-1298.6391207138076,1311.3846997627988,-1613.0749493883923,-2348.305621577427,1731806992.0182564
621,-967.9983055312186,1543.7259845100343,-1387.2036915645003,-2179.4715779777616,1731806992.0320787
622,-821.4147967179306,1693.6604436836205,-1327.0829298268072,-2507.7225970886648,1731806992.0320787
623,-754.582784509752,1941.2119015506469,-948.4404987129383,-2989.38244243199,1731806992.0475943
624,-821.7121187644079,1661.996580708772,-1334.803953285329,-2912.7818115395494,1731806992.0475943
625,-538.2482715728693,1938.4032366839238,-1088.5969894523732,-3087.566035968717,1731806992.0485592
626,-1016.9891250007786,1599.1756112030707,-1384.1126642511226,-2639.7261059246957,1731806992.0485592
627,-815.4683557883836,1751.4942565984093,-1109.5105100045912,-2681.128668384161,1731806992.061884
628,-1241.600036539603,2159.5154718142003,-873.9286019457504,-2753.211500130128,1731806992.061884
629,-938.1015452854335,2628.736409904901,-1317.4956962903962,-2608.3969639958814,1731806992.0776217
630,-1093.761791291181,2542.6196035752073,-1249.4220372969285,-2974.2545471112244,1731806992.0776217
631,-921.3262240341865,2488.94081951119,-1486.5129949878901,-3233.5455509391613,1731806992.0783486
632,-682.6028000125661,2773.436879090499,-1211.2058695997111,-3352.4033114309423,1731806992.0783486
633,-600.2202837886289,3031.3478598347865,-804.7722419151105,-3817.0241725761443,1731806992.0920603
634,-964.7838615193032,3323.041356878821,-837.8778363228776,-3371.620787353255,1731806992.0920603
635,-609.3418997805566,3714.079686395824,-374.4425234636292,-3348.5923533760943,1731806992.1074688
636,-879.7778054764494,3692.1376933557913,-223.89285074733198,-3446.8582247118466,1731806992.1074688
637,-992.9378283857368,3395.9619262148626,-644.2669555167668,-3163.4486060696654,1731806992.1226327
638,-1229.4042227840982,3107.9597104270943,-954.5814144401811,-2821.3580871727318,1731806992.1226327
639,-751.3870399976149,2861.238510350231,-973.0266010216437,-3253.982234247029,1731806992.1233573
640,-1177.5729492981918,3290.3097524666227,-684.426001240965,-3349.860179461073,1731806992.1233573
641,-997.2910719341598,3309.7422726363875,-764.6618148903362,-3491.647266581189,1731806992.137709
642,-585.7618305599317,2920.7253590454347,-994.2580130700953,-3156.7448353990912,1731806992.137709
643,-610.5050086667761,2911.8019577511586,-1041.0666009155102,-3050.168906361796,1731806992.1384456
644,-814.245408502873,2497.841781405732,-612.7059397906996,-3149.6034964337014,1731806992.1384456
645,-1243.2792516197078,2198.279534854926,-720.8414071095176,-2722.134801448323,1731806992.1521003
646,-811.4460933860391,1719.2282697306946,-283.37595954257995,-2502.799018796999,1731806992.1521003
647,-879.14389243396,1497.899120402988,-575.0077482373454,-2113.9952795035206,1731806992.1692977
648,-1122.8170740469359,1239.2214601677842,-839.500952903647,-1736.2859534285963,1731806992.1692977
649,-843.2689021090046,1609.1929332343861,-425.6080947574228,-1696.5775656490587,1731806992.1693163
650,-1160.6349423988722,1310.5974508221261,-672.6191370808519,-1387.545892410446,1731806992.1693163
651,-779.2474247175269,1571.915480426047,-429.94450875604525,-1200.6443921248429,1731806992.1819103
652,-594.5169363562018,1762.0763035230339,-314.54428577329963,-1468.8961962466128,1731806992.1819103
653,-586.2367978543043,1903.3659839490429,-91.44429381657392,-1128.000575385522,1731806992.1975148
654,-607.8178905486129,1720.8420365615748,-280.84217732260004,-875.8079016734846,1731806992.1975148
655,-316.5862711491063,1996.253879148513,-74.49880711734295,-1070.9259621617384,1731806992.1982117
656,-790.4577748347074,1663.900189786218,-333.1951668523252,-603.3318805517629,1731806992.1982117
657,-634.1224768869579,1812.583652424626,-69.44620227720588,-649.1325653591193,1731806992.2119453
658,-1078.1645385259762,2182.095117796678,103.45872242422774,-773.143907989841,1731806992.2119453
659,-780.6237079012208,2621.5053133405745,-379.47081895405427,-669.5991678666323,1731806992.2275095
660,-1011.7439153129235,2494.380503996741,-380.38522449322045,-1105.362960953731,1731806992.2275095
661,-813.6975131593645,2452.1495536970906,-603.8517266456038,-1353.9615908083506,1731806992.2282271
662,-543.2672173134051,2824.589360734448,-194.61504394421354,-1343.9554884769022,1731806992.2282271
663,-341.664170301985,3261.843503953889,-501.5654628574848,-1562.7676851344295,1731806992.241813
664,-633.2099412977695,3594.0812564175576,-464.79850639309734,-2017.118781001307,1731806992.241813
665,-297.06960323033854,3976.229843739886,-48.665448173414916,-2030.0625747479498,1731806992.2575283
666,-602.7017074092291,3916.2343686507083,74.80734886368737,-2171.8010431686416,1731806992.2575283
667,-723.1433155322447,3572.4608947737142,561.4954896974377,-1963.9000046318397,1731806992.2582777
668,-1031.8122184751555,3195.7968707364053,137.24123872397467,-1735.0910553927533,1731806992.2582777
669,-578.1343046003021,2909.855339824222,80.3536204979755,-2198.991985796485,1731806992.2718868
670,-955.2003678828478,2457.9052597288974,537.0889025866054,-2145.698411427904,1731806992.2718868
671,-765.5874401293695,2466.7351635242812,398.0543818338774,-2322.0159948389046,1731806992.287446
672,-402.1346126855351,1988.910585585516,60.23669863631949,-2098.8243753332645,1731806992.287446
673,-426.2906264993362,2029.48102030484,115.05989208677784,-1914.0359185226262,1731806992.288272
674,-576.9581060642377,1689.0996356876567,-330.6445550825447,-1896.0881386352703,1731806992.288272
675,-1017.6866163425148,1406.4866157360375,-433.47684426419437,-1463.9670081050135,1731806992.3018832
676,-610.5741968159564,1855.4185965671204,-64.0102576916106,-1323.804907515645,1731806992.3018832
677,-598.0866708639078,1753.6428291229531,-163.81135795917362,-1727.315803384874,1731806992.3174934
678,-823.2024688967504,1512.9578275745735,-401.4857400432229,-1310.1467928774655,1731806992.3174934
679,-576.1951664732769,1831.5655146497302,-101.82812604354694,-1388.5276161488146,1731806992.3183005
680,-911.9802140449174,1505.3022523652762,-393.5646319370717,-1133.4066007714719,1731806992.3183005
681,-499.60388533072546,1835.1315092574805,-27.559322773478925,-817.852542010136,1731806992.3317935
682,-349.14958006329834,1964.6348949731328,3.738030005712062,-1165.6220989897847,1731806992.3317935
683,-355.74676358513534,2123.9434133856557,248.73513620300218,-807.4630999332294,1731806992.34761
684,-375.81319679738954,1943.3006356758997,54.965309648774564,-549.3090256918222,1731806992.34761
685,-164.57803745009005,2062.8708471092395,34.418299292214215,-970.5115183014423,1731806992.3482792
686,-612.2104030465707,1793.3923558020033,-138.5819928580895,-1409.6842301981524,1731806992.3482792
687,-481.6804147930816,1903.8503009933047,79.8917428534478,-1506.7589433980174,1731806992.3619065
688,-881.4009220572188,2306.706714370288,294.88176175625995,-1581.0146570182405,1731806992.3619065
689,-619.0974288149737,2712.652285110671,754.9511646553874,-1522.4534335620701,1731806992.3775003
690,-827.52392329555,2556.3786955121905,712.0227230140008,-1994.4755567195825,1731806992.3775003
691,-669.385993569158,2442.966229355894,391.6441933098249,-2342.125436900649,1731806992.3781297
692,-411.4768827748485,2805.6935162083246,795.6711953729391,-2334.5577493403107,1731806992.3781297
693,-238.23723702738062,3204.1536771873944,445.8690027673729,-2609.195432636421,1731806992.39183
694,-429.44149221200496,2722.785544040613,733.777721056249,-2808.391854026355,1731806992.39183
695,-170.07756033493206,2983.2602262045257,945.0016607036814,-3015.3354781745,1731806992.4075177
696,-543.9740584050305,2832.078510395717,938.5727726798505,-3282.2296986123547,1731806992.4075177
697,-582.7325115958229,2655.0335164433345,703.8697411105968,-2833.9540702234954,1731806992.4082184
698,-902.3929805085063,2245.1816201992333,216.44483998557553,-2654.7212347970344,1731806992.4082184
699,-451.54243100015447,1945.720350947231,119.5178528339602,-2184.7784960148856,1731806992.4217067
700,-906.9967973539606,2362.9286304041743,409.6293721967377,-2289.6434208224528,1731806992.4217067
701,-675.5119496965781,2433.451923868619,416.3611921169795,-2332.577472313773,1731806992.4376247
702,-324.11655970988795,2920.8749550436623,9.688210835214704,-2162.9412201736122,1731806992.4376247
703,-389.1608997392468,2935.991630664561,52.685840625781566,-2004.298403953202,1731806992.4383552
704,-490.6038160873577,2637.3998881522566,-329.1523350002244,-1927.9408665578812,1731806992.4383552
705,-966.4238076498732,2266.338234248571,-595.1826385483146,-1652.8020366677083,1731806992.451871
706,-573.4781291554682,2701.4176256437786,-229.3549746326171,-1513.8292242642492,1731806992.451871
707,-573.0929194600321,2616.168476103805,-293.86637891829014,-1892.5408435272984,1731806992.4677205
708,-789.2030383995734,2344.9808505168185,-601.0729809785262,-1524.9292473327368,1731806992.4677205
709,-631.3998297192156,2585.9033357123844,-369.4852860723622,-1684.4210208430886,1731806992.4684453
710,-888.4861625232734,2369.0059678321704,-517.6956513663754,-1287.9916255399585,1731806992.4684453
711,-499.8843778274022,2636.19938026648,-246.60900307819247,-1063.2049387032166,1731806992.4822946
712,-322.8468636749312,2836.0764634483494,-133.09742957307026,-1327.713102969341,1731806992.4822946
713,-351.397259936668,2931.2943163202144,40.205794473644346,-1055.7139190919697,1731806992.4976425
714,-392.246317202691,2763.643951056525,-136.11739878728986,-775.8646852076054,1731806992.4976425
715,-117.36928030941635,3037.4139775629155,73.08325498411432,-969.7822378100827,1731806992.4984503
716,-531.256528605707,2779.2486836216412,-83.33432076266035,-1395.3043148685247,1731806992.4984503
717,-394.4509882265702,2897.481880820822,132.74213907727972,-1486.2829911406152,1731806992.5117805
718,-823.6606066413224,3246.334138837643,262.96358558442444,-1644.2114864694886,1731806992.5117805
719,-555.051642073784,3688.3248653509654,-213.60438596922904,-1535.1279545119032,1731806992.5275352
720,-836.4660240896046,3469.621125792153,-316.6778986980207,-1099.3323722751811,1731806992.5275352
721,-683.9641235964373,3392.156578009948,-588.834158373531,-1394.4291782788932,1731806992.528344
722,-409.34887970006093,3765.3443650384434,-180.1210616659373,-1387.4523949115537,1731806992.528344
723,-202.91762184584513,4219.723510154989,-451.10486270533875,-1575.0738259386271,1731806992.5417955
724,-468.56832554843277,4619.122386022937,-313.55508223501965,-1922.3628057739697,1731806992.5417955
725,-150.49170426698402,4952.738291620277,24.649680607952178,-2011.462182318326,1731806992.5576105
726,-491.08439323166385,4828.569873191416,80.82671784237027,-2222.089607922826,1731806992.5576105
727,-624.5109340008348,4517.026857132558,-347.06084593804553,-1954.5109857930802,1731806992.558391
728,-911.2079247040674,4155.105518720578,-766.4831461687572,-1715.6940642725676,1731806992.558391
