Unnamed: 0,ch1 - AF7,ch2 - AF8,ch3 - TP9,ch4 - TP10,timestamp
14503,40.97434391453862,63.194959501270205,45.87174290651456,24.343008811585605,1731709515.668733
14505,-71.34607145469636,-78.07228152500466,-39.08756438689306,-31.538576326332983,1731709515.6695092
14504,96.47445925697684,112.2923661195673,88.01293560722843,74.38661011867225,1731709515.6695092
14502,-103.21749887708576,-103.3689648252912,-61.29883022373542,-57.14567132294178,1731709515.668733
14519,-86.35802987683564,-83.5026162606664,-50.53165825130418,-50.96361669618637,1731709515.743575
14500,94.85508257616311,118.8895496414043,87.89699870860204,64.01212764158845,1731709515.653279
14499,-69.76409377343953,-65.79792987043038,-37.95437470031902,-42.2421699995175,1731709515.639514
14506,-23.66234701965004,-10.847579821478575,-4.605686795432121,-15.176514020189645,1731709515.6837227
14501,46.01198915485293,55.81239698873833,53.546017615590245,49.303101115860045,1731709515.653279
14507,116.21365122310816,143.07174275489524,103.42132342467085,80.4452480468899,1731709515.6837227
14518,-8.508272399194539,-8.932751044165343,15.55237396573648,15.359769118018448,1731709515.743575
14509,-78.49676016997546,-73.00097718508914,-43.12665633903816,-49.57237391266972,1731709515.698711
14510,100.09094251412898,124.40216217609122,86.80868782149628,67.4004770014435,1731709515.6996915
14511,43.03502879012376,51.67980753770098,50.23246625484899,45.08823386579752,1731709515.6996915
14512,-97.40195444598794,-100.75477475626394,-54.70538660185412,-53.44317036680877,1731709515.7296815
14513,42.56006149575114,67.97081174468622,48.06706418050453,29.964078444987532,1731709515.7296815
14514,96.07055006176232,112.61773741571233,94.44930343097076,77.98065397609025,1731709515.7301488
14515,-75.46744120586663,-81.88697947980836,-41.55215845769271,-33.43470560386777,1731709515.7301488
14516,-24.11861481424421,-11.760115410666913,-2.137352824676782,-19.989765263162557,1731709515.731002
14517,121.15405906457454,148.07198899565265,111.67154272692278,90.6701345257461,1731709515.731002
14498,-13.807710636407135,-17.46720274304971,6.606533271726221,9.23007309064269,1731709515.639514
14508,-16.672474002465606,-22.239315086510032,2.9264717153273523,8.04452480468899,1731709515.698711
14497,117.06634841300549,139.99006519140676,102.60228533437476,83.77375900745392,1731709515.6392665
14474,101.0894958022982,119.68240843201056,94.12767203478144,83.60546350944787,1731709515.5340867
14495,-78.27984597254544,-83.63351275911555,-45.95028080558404,-37.11476716026664,1731709515.62354
14473,44.23179677594453,75.35337425721809,49.862216159235686,30.020176944322884,1731709515.5197544
14520,97.01674475055188,125.5652710623108,88.1700114053674,66.76469400897622,1731709515.759029
14475,-71.00948045868427,-70.8654943103902,-34.173335845116526,-27.74257787130773,1731709515.5340867
14476,-13.792751036584376,4.699184294324368,5.940831079613417,-8.369896100834012,1731709515.53446
14477,125.35770661477,157.75458998093382,114.94021528819576,91.6312888143584,1731709515.53446
14478,-19.3427625708282,-19.85699881473556,0.4169988450594246,6.42514812387526,1731709515.5492575
14479,-74.2594535201788,-69.0516428318806,-41.42874175915495,-50.64946509990841,1731709515.5492575
14480,108.8647478101775,140.41267388639972,98.44725648360328,76.94470168836415,1731709515.549829
14481,48.56260092463344,61.84111571731046,53.20942661957815,54.66611765231937,1731709515.549829
14482,-97.58520954381676,-97.7703345916234,-54.80636390065774,-51.52834158949554,1731709515.5632489
14496,-24.47764520999044,-9.291781439911574,-2.574921119492501,-18.000138486735523,1731709515.6392665
14483,45.37620616238564,74.52685636701062,48.16804147930816,29.78082334715873,1731709515.5632489
14485,-79.62620995659381,-81.6887647821568,-41.28662556083873,-39.57188143115491,1731709515.5790508
14486,-13.590796438977122,4.826340892817825,6.079207377973944,-9.817237383686006,1731709515.5795465
14487,122.27228915132582,147.13701400673017,112.65887631522492,86.88535577058792,1731709515.5795465
14488,-15.65148131456226,-21.760607892181724,5.241469787899405,10.153828379698098,1731709515.5934007
14489,-78.04049237538129,-75.73484405269846,-44.229926825966686,-48.55138122476637,1731709515.5934007
14490,96.98308565095068,119.53281243378296,87.21633691666648,66.15135041624308,1731709515.6090727
14491,43.984963378869,51.54143123934045,51.885502035263926,40.01318962592632,1731709515.6090727
14492,-98.0452172383666,-100.37704486073926,-52.74193912511692,-55.08872634731233,1731709515.6095672
14493,45.75393605791032,66.4561522626318,47.45746048772708,27.106794878840446,1731709515.6095672
14494,99.82166971731932,116.0360059752129,93.64522494049744,78.17512877378613,1731709515.62354
14484,93.79295098874718,111.06193903414533,85.316467739176,76.47721419390291,1731709515.5790508
14521,35.226117682643235,45.093843715731055,45.39677561214194,42.26834929920733,1731709515.759029
14545,-77.19153508543968,-82.9117120676674,-44.39448242401704,-38.431211944669485,1731709515.8792353
14523,46.71509034652263,74.2014850708656,51.53769133938477,32.20427851844579,1731709515.7595396
14551,49.19090411718935,54.57823000336066,49.32741046557203,51.38248549122363,1731709515.9089756
14552,-95.54696406796576,-101.85804524319246,-60.53589063277468,-52.59795297682285,1731709515.9103014
14553,47.95673713181168,71.35168130462989,48.32137737749144,23.92040011659265,1731709515.9103014
14554,111.07502868399024,121.26812601322308,99.37475167261437,82.10202372726053,1731709515.9233398
14555,-65.7324816212058,-68.6813927362673,-30.930842583533376,-31.553535926155742,1731709515.9233398
14556,-21.100515550002456,-5.9744901792146266,-0.2898422465659678,-16.257345107384026,1731709515.9389167
14557,121.22885706368834,151.81188895134255,106.67129648616536,88.11952275596559,1731709515.9389167
14558,-14.222839531488717,-11.677837611641737,12.107926106546074,8.4858329994604,1731709515.9395545
14559,-77.24389368481934,-73.7190379765816,-44.278545525390655,-50.87011919729412,1731709515.9395545
14560,100.96981900371613,127.06497094454244,88.36822610301897,66.08403221704066,1731709515.9534695
14561,46.879645944572985,53.35154281789437,49.850996459368616,49.93888410832733,1731709515.9534695
14562,-103.79718337021768,-101.72714874474332,-61.92339351633564,-57.99462861288339,1731709515.9690104
14563,40.14034622441977,59.85896874079481,41.899969153571874,22.719892230816185,1731709515.9690104
14564,106.10470164287835,117.06447846302764,92.63171205250546,75.72549430280924,1731709515.96945
14565,-71.96315494738519,-78.91749891499057,-37.35599070740864,-34.13032699562609,1731709515.96945
14566,-24.634721008129414,-7.8369603571482,-8.379245850723237,-18.05623698607087,1731709515.983498
14567,123.08010754175484,145.37552112760022,106.71243538567796,87.54731806274503,1731709515.983498
14568,-16.91182759962976,-22.568426282610744,1.090180837083608,5.471473635174334,1731709515.9992237
14570,104.22353196516632,136.17910713655874,94.71483632782474,68.19707569200546,1731709515.9994705
14472,-98.6398613313213,-94.22864933358504,-57.962839463260025,-51.296467792242765,1731709515.5197544
14571,55.286941044963896,63.02666400326416,57.23729887185618,55.03262784797698,1731709515.9994705
14550,102.8248093817383,126.91911484627052,91.52096176566556,71.94071554765105,1731709515.9089756
14549,-70.1455635689199,-65.3454019757919,-38.39568289509043,-41.66996530629695,1731709515.8934312
14548,-17.398014593869448,-21.450196195859466,4.21673720004037,3.893235853873193,1731709515.8934312
14547,121.00820296630263,146.9799382085912,109.93622914748266,88.57579055055976,1731709515.8794017
14524,96.17152736056596,111.32747193099932,87.47439001360908,78.77351276669651,1731709515.773311
14525,-71.71632155030966,-78.12090022442862,-39.34935738379136,-34.373420492745936,1731709515.773311
14526,-27.488264674320817,-9.42267793836072,-8.012735655065626,-15.804817212745547,1731709515.7889369
14527,108.41595981549472,130.8160906000994,97.04479400021955,81.2605462372303,1731709515.7889369
14528,-18.25445168372244,-16.390111555811018,6.606533271726221,10.288464778102934,1731709515.7894804
14529,-83.64286250900477,-73.52082327893004,-48.17926117917523,-49.276921816170216,1731709515.7894804
14530,108.569295713678,135.55080394400284,98.53701408253984,69.52100027631968,1731709515.8034675
14531,56.59216612949968,65.39028077526018,61.40728732245043,61.83550586737693,1731709515.8034675
14532,-99.9413465159014,-101.86552504310384,-57.35323577048257,-54.96156974881888,1731709515.8192112
14533,40.15530582424253,60.22921883640811,41.49605995835736,28.23998456541449,1731709515.8192112
14522,-97.53285094443709,-98.68661008076742,-56.24622538359836,-46.52809534873813,1731709515.7595396
14534,106.5721891373396,121.02129261614756,98.20042308652772,78.65383596811444,1731709515.8194644
14536,-26.22417848929763,-15.316760268528014,-9.81536743370816,-16.425640605390072,1731709515.8334656
14537,127.60538648813964,151.54261615453288,109.41264315368608,89.23401294276118,1731709515.8334656
14538,-29.302116152830425,-30.02952669421211,-8.547541348729283,1.1818083859980106,1731709515.848892
14539,-84.58531729783863,-79.17555201193318,-49.065617468673736,-55.64971134066582,1731709515.848892
14540,91.87812221143396,119.83948423014954,83.278222263325,59.752381592057645,1731709515.8495364
14541,43.78300878126174,53.979846010450274,51.103862944524735,46.16532505303621,1731709515.8495364
14542,-95.53574436809868,-98.72774898028,-59.93002683995292,-52.79616767447442,1731709515.8633063
14543,49.261962216347456,73.95091177383438,51.55265093920752,26.766463982872665,1731709515.8633063
14544,101.22787210065871,120.56128492159768,87.67634461121634,78.82587136607617,1731709515.8792353
14546,-20.52457095682621,-5.349926886614412,-3.1209465130232275,-18.91267407592386,1731709515.8794017
14535,-71.17029615677893,-80.12174670072272,-36.12182372203097,-33.43844550382346,1731709515.8194644
14471,50.29791450407356,66.24671786511317,61.80745661770925,54.9914889484644,1731709515.5196908
14569,-80.71826074365526,-78.93993831472471,-46.72070019645616,-51.36752589140088,1731709515.9992237
14469,-68.00634079426527,-60.640607831534,-36.00214692344889,-45.11441316548735,1731709515.4896874
14397,118.60344729479402,146.59472851315513,109.00686400849372,84.03368205437437,1731709515.1441495
14398,-37.30550205800682,-37.15029620984569,-7.5059792110696435,-9.03746824292466,1731709515.1441495
14399,-57.75527501571924,-51.530211539473385,-28.7186917597428,-34.36407074285671,1731709515.1446056
14400,105.06500945519656,134.81030375277624,95.48338576871902,68.38968053972349,1731709515.1446056
14401,43.18462478835136,46.57484409818426,46.045648254454136,43.09299723943696,1731709515.1583111
14402,-101.20543270092458,-99.90955736627802,-61.89534426666796,-57.76836466556415,1731709515.1583111
14403,59.62522499356419,84.0561214541085,58.361138808541,33.68714885087684,1731709515.1740751
14404,82.74902641959488,108.19717566808686,80.97257394064218,71.69575210055336,1731709515.1740751
14405,-74.97377441171557,-76.39680634485558,-42.52640239614993,-33.76194684999064,1731709515.174575
14406,-10.314644077792764,11.775075010489672,7.191827614791691,-11.591819912660869,1731709515.174575
14407,122.85571354441343,153.81273542763665,107.56700252555312,90.2419159808196,1731709515.1882842
14408,-19.26422467175871,-10.776521722320467,1.6006771810352802,6.931904567871243,1731709515.1882842
14409,-66.1064716167748,-56.1564677846618,-40.36474022176117,-43.14535583881661,1731709515.2038326
14410,107.14439383056016,136.90838762791827,89.92215453460813,71.65087330108508,1731709515.2038326
14411,49.78180831018835,54.09578290907666,54.25098875723779,47.22184679051861,1731709515.2044916
14412,-94.78028457704931,-97.31032689707354,-56.01248163636774,-54.62684870278463,1731709515.2044916
14413,64.01212764158845,90.34663317957892,59.57660629414022,43.03315884014592,1731709515.2184255
14414,93.30676399450748,113.8855635006912,85.66614838503301,70.57378211384639,1731709515.2184255
14415,-71.91827614791691,-70.54386291420087,-37.55981525499374,-32.50534046487883,1731709515.2341952
14416,-12.977452846243978,9.157145041506736,1.7053943797945976,-13.203716793563215,1731709515.2341952
14417,125.70551731064916,153.40882623242214,108.47579821478575,88.76091559836641,1731709515.234375
14396,-15.655221214517953,2.526302420068532,4.319584448821843,-11.640438612084836,1731709515.128163
14418,-25.4200999988243,-22.770380880218,-5.2096806382760406,-3.337860710453242,1731709515.234375
14395,-71.86217764858156,-76.1275335480459,-29.859361246228215,-31.001900682691485,1731709515.128163
14393,57.17933042254299,81.00810299022123,56.83151972666383,36.10312422225252,1731709515.116145
14372,-99.89272781647742,-97.2878874973394,-56.83899952657521,-56.6389148789458,1731709515.008475
14373,58.6939899045974,88.20367050496861,59.20635619852692,37.43078870652244,1731709515.02408
14374,86.61982287373394,105.9981144941412,81.25306643731892,71.29184290533885,1731709515.02408
14375,-84.69003449659795,-86.0943669299595,-51.07207379490137,-39.45407458255068,1731709515.0245135
14376,-10.310904177837074,6.569134272169322,4.899268941953778,-9.534874937031418,1731709515.0245135
14377,109.84086169861256,141.74407827062532,96.63527495507152,78.33781442185864,1731709515.038398
14378,-20.72278565447777,-21.450196195859466,5.2508195377886295,3.670711806509644,1731709515.038398
14379,-56.46500953100622,-51.0814235447906,-23.935359716415405,-28.75048090936616,1731709515.0542774
14380,103.94677936844528,136.61293553141877,93.20578669570386,73.15805298322812,1731709515.0542774
14381,41.88687950372696,51.26093874266371,50.17823770549148,42.58063094550744,1731709515.0543537
14382,-93.35164279397576,-95.73582901572809,-49.22830311674625,-49.63034236198291,1731709515.0543537
14383,54.41180445533246,77.75439002877101,54.08269325923175,34.38651014259085,1731709515.068126
14384,93.47131959255783,108.13359736884011,85.95786058157682,70.98517110897228,1731709515.068126
14385,-92.10251620877534,-89.92028458463028,-50.72052319906652,-46.87403609463945,1731709515.0839849
14386,-16.05165060982108,1.5501885316334665,0.886356289498508,-13.278514792677017,1731709515.0839849
14387,124.04126183036716,142.65287395985797,106.40389363933356,84.18327805260196,1731709515.0845032
14388,-29.81074254680425,-33.72080795047805,-9.20389379095286,-5.129272789228708,1731709515.0845032
14389,-68.74310108553618,-63.52033079741523,-42.45908419694752,-46.58980369800702,1731709515.1149535
14390,113.2778297578916,133.0488108736463,100.23679861240088,74.0556289725937,1731709515.1149535
14391,36.88289336301386,43.08551743952557,44.53098877239972,43.98683332884684,1731709515.115034
14392,-86.24583287816495,-89.26206219242886,-46.26256245188415,-50.16888795560226,1731709515.115034
14394,102.4956981856376,115.23566738469526,94.92614067532122,84.1720583527349,1731709515.116145
14419,-59.94685638975352,-46.76557899592444,-29.990257744677365,-36.74638701463118,1731709515.2484927
14371,34.67261248920113,38.67617539176717,35.09522118419409,39.95522117661312,1731709515.008475
14421,36.72581756487489,50.98044624598697,46.10548665374517,43.52682563429698,1731709515.2638416
14448,-18.310550183057785,-12.362239303532988,5.63976913318038,5.2115505882538855,1731709515.3844173
14449,-69.13579058088362,-56.14524808479473,-42.874213092029095,-47.7828317838721,1731709515.3984723
14450,102.96318568009885,140.4164137863554,100.43501331005244,64.77319728257135,1731709515.3984723
14451,40.54799531958997,51.522731739562005,50.79906109813601,37.25501340860501,1731709515.4140096
14452,-97.80960354115814,-98.26774128573015,-57.98340891301632,-57.955359663348645,1731709515.4140096
14453,57.74031541589648,87.60528651205823,60.34328578505665,31.21507498016581,1731709515.4145162
14454,97.76472474168986,117.83863775385544,93.62839539069682,73.943431973923,1731709515.4145162
14455,-76.73152739088982,-72.97479788539931,-39.10813383664936,-32.83445166097954,1731709515.4283345
14456,-19.578376268036664,0.0355290495790541,-0.1234166985377669,-17.740215439815074,1731709515.4283345
14457,111.97260467335582,143.05678315507248,99.11108872573824,80.08808760112152,1731709515.4437816
14447,129.45289706625044,158.54744877154008,112.38399366848172,85.55956123629585,1731709515.3844173
14458,-25.139607502147555,-28.230634815525264,-7.995906105265021,-4.755282793659717,1731709515.4437816
14460,120.0171294780448,145.92902632104233,105.72697174735367,78.29293562239036,1731709515.4447942
14461,45.03587526641786,59.597175743896514,52.571773677133024,45.94654090562835,1731709515.4580967
14462,-94.80272397678344,-93.88457853766158,-57.732835615985096,-55.65532119059935,1731709515.4580967
14463,53.92561746109277,81.49802988441661,57.14567132294178,36.8511042133905,1731709515.4736674
14464,100.29289711173624,121.01755271619186,91.35079631768168,79.14189291233197,1731709515.4736674
14465,-66.6599768102169,-64.27953048842028,-31.901346622034907,-26.457922236528248,1731709515.4743364
14466,-18.85657557658851,-2.638499418739229,-4.132589451037347,-14.27706808084622,1731709515.4743364
14467,115.70128492917866,141.4598458739929,96.7512118536979,81.00436309026554,1731709515.4888182
14468,-17.876721788197756,-19.396991120185703,4.558938045985997,4.347633698489517,1731709515.4888182
14420,102.13292788993569,133.6359751666896,90.11288943234833,69.38823382789269,1731709515.2484927
14459,-59.26245469786227,-50.84954974753782,-29.39935355167836,-34.79789913771674,1731709515.4447942
14446,-23.108841826207936,-0.039268949534744,0.441308194771409,-22.216875686775893,1731709515.384348
14470,102.14788748975845,132.2335126833059,94.51662163017318,68.30179289076477,1731709515.5196908
14444,99.94882631581277,122.78652539523318,95.21411297190934,73.04585598455742,1731709515.3685296
14445,-78.24244697298855,-81.84210068034008,-45.18921116460115,-41.29036546079442,1731709515.384348
14422,-96.82974975276738,-98.55571358231828,-62.35535196121782,-53.78163131279871,1731709515.2638416
14423,65.48190832417458,88.77961509814486,62.224455462768674,39.55131198139861,1731709515.264465
14424,96.88584825210272,120.45656772283836,90.45322032831608,77.06998833687976,1731709515.264465
14425,-65.76240082085133,-72.17445929488167,-36.13865327183157,-32.82697186106816,1731709515.2780683
14426,-11.507672163657844,12.059307407122104,9.787318184040489,-8.446564049925655,1731709515.2780683
14427,129.4267177665606,158.5437088715844,115.7611233284697,98.89604447828606,1731709515.293704
14429,-56.2480953335762,-44.84327041869983,-26.059622891247272,-34.74554053833708,1731709515.2944896
14430,102.02073089126498,134.9374603512697,89.5631241388619,64.72083868319169,1731709515.2944896
14431,53.731142663396895,67.61178134893999,55.74694873951376,50.76353204855696,1731709515.3084114
14432,-91.6013696147129,-85.86623303266242,-56.098499335348606,-48.97585986973718,1731709515.3084114
14428,-21.437106546014547,-17.44102344335988,-3.055498263798654,4.923578291665763,1731709515.293704
14434,96.00323186255991,123.81499788304792,91.90804141107948,79.99459010222927,1731709515.3237145
14435,-73.64984982740134,-69.84076172253117,-40.56669481936842,-35.833851425442845,1731709515.3243954
14436,-12.397768353112042,7.679884559009224,8.770065396092832,-16.023601360153407,1731709515.3243954
14443,51.23662939295173,75.49175055557862,44.27293567545712,24.57301265886053,1731709515.3685296
14437,128.55158117692918,158.26695627486333,113.719137952663,89.89784518489614,1731709515.3384657
14438,-22.50297803338617,-16.603285853285342,-3.7922585550695658,-1.3482339340262115,1731709515.3384657
14439,-60.537760582752526,-51.63118883827701,-29.36569445207715,-34.610904139932245,1731709515.3540208
14440,103.51295097358523,137.32351652299985,91.49291251599789,68.95066553307697,1731709515.3540208
14441,50.903778296895325,60.4910118333064,54.27342815697193,46.82915729517117,1731709515.3544974
14442,-89.17043464351445,-89.54629458906129,-53.00934197194874,-55.46084639290348,1731709515.3544974
14433,50.30539430398494,86.37111952668056,57.69169671647251,34.992373935412616,1731709515.3237145
14704,97.4337435956113,123.26336263958363,91.92487096088009,73.72838772647083,1731709516.6736724
14703,24.887164255138487,50.96361669618637,31.60776447551325,14.308857230469584,1731709516.6736724
14702,-93.52554814191537,-94.6007693791762,-52.285671330522746,-46.71135044656694,1731709516.6583517
14697,122.76782589545472,149.53241992834955,108.53002676414326,87.62959586177021,1731709516.6440897
14700,89.96142348414287,121.81602135673164,83.37919956212863,58.611712105572224,1731709516.6445007
14699,-89.03018839517608,-81.7803923310712,-52.16599453194067,-57.328926420770586,1731709516.6445007
14698,-5.106833389494568,-1.9073489774018528,15.810427062679082,19.189426672644917,1731709516.6440897
14705,-63.2360984007828,-60.85565207898617,-26.04653324140236,-26.18303958978504,1731709516.6743927
14701,62.33104261150584,71.86965744849294,66.755344259087,55.03636774793267,1731709516.6583517
14706,-33.98260094737634,-19.821469765156507,-7.822000757325441,-25.633274296298623,1731709516.6743927
14717,125.80462465947494,155.86781045328826,111.86975742457436,87.73805296048522,1731709516.734496
14708,-4.022262402344495,0.4151288950815797,16.74540205160156,19.548457068391144,1731709516.6881132
14709,-81.49802988441661,-73.91912262421101,-44.50293952273205,-43.63715268298984,1731709516.7037785
14710,86.11680632969365,112.2755365697667,79.56076170736924,54.77083485107869,1731709516.7037785
14711,67.92967284517363,75.77037310227752,69.25359742948785,58.23398221004754,1731709516.704415
14712,-95.92656391346829,-96.96812605112792,-54.62684870278463,-50.69808379933238,1731709516.704415
14713,44.00927272858098,67.63235079869628,51.70224693743512,33.647879901342094,1731709516.7180817
14714,109.00873395847157,127.95693708397448,98.51083478285,83.95701410528272,1731709516.7180817
14715,-61.73265861859545,-66.42436311300844,-30.493274288717657,-26.343855287879705,1731709516.7340438
14716,-40.27311267284677,-28.2362446654588,-13.241115793120116,-23.658607119694352,1731709516.7340438
14707,125.598930161912,151.71652150247246,112.83465161314234,90.76363202463835,1731709516.6881132
14696,-35.018553235102445,-19.623255067504942,-10.219276628922673,-23.53145052120089,1731709516.6295152
14685,-66.53843006165698,-69.76035387348384,-32.991527459118515,-25.33408229984343,1731709516.584018
14694,118.84093094198032,140.7361752325669,109.8502114485018,91.51909181568772,1731709516.6287897
14672,-97.80025379126891,-101.4186069983989,-66.50851086201146,-51.41240469086915,1731709516.5085037
14673,30.36237779026851,54.23976905737072,34.4800076414831,20.53205075673759,1731709516.5242157
14674,102.8790379310958,116.1986916232854,81.99543657852337,79.31205836031586,1731709516.5242157
14675,-59.39896104624495,-70.27646006736904,-37.67388220364228,-27.36858787573874,1731709516.5244768
14676,-32.91298956004903,-19.469919169321656,-14.127472082618624,-21.807356641627848,1731709516.5244768
14677,125.707387260627,151.93717559985816,107.5539128757082,90.490619327873,1731709516.5384564
14678,-17.672897240612656,-14.675367426127195,2.660938818473369,8.220300102606416,1731709516.5384564
14679,-76.84559433953837,-72.65503643918782,-37.49810690572485,-49.88652550894767,1731709516.5542183
14680,92.51951505383477,118.76800289284438,84.32539425091818,59.61026539374143,1731709516.5542183
14681,59.167087248992175,72.16884944494814,63.07528270268813,54.39310495555401,1731709516.554562
14695,-60.83508262922987,-65.65768362209201,-26.843131931964308,-21.34734894707799,1731709516.6295152
14682,-96.37535190815106,-103.90938036888838,-61.02955742692575,-57.65429771691561,1731709516.554562
14684,101.16616375138985,118.93255849089472,91.47982286615296,77.71886097919196,1731709516.5680451
14718,-2.058814925607294,-0.6769218919798732,20.27960750972852,19.3427625708282,1731709516.734496
14686,-41.31654476048425,-28.359661363996565,-15.212043069768695,-27.02825697977096,1731709516.584018
14687,123.54198518628256,147.27726025506854,112.04927262244746,82.12820302695036,1731709516.5845923
14688,-6.988003067206591,-4.974066941067576,11.973289708141236,11.223439767025411,1731709516.5845923
14689,-84.86019994458184,-79.5177528578788,-48.61682947399095,-52.137945282273,1731709516.598183
14690,93.07676014723256,121.02690246608108,91.2853480684571,61.80932656768709,1731709516.598183
14691,54.73530580149964,69.34522497840226,65.83158897003159,55.56743354164064,1731709516.61443
14692,-102.04504024097696,-107.95595212094486,-63.995298091787845,-54.84563285019249,1731709516.61443
14693,41.90370905352757,63.9186301426962,47.090950292069465,23.135021125897765,1731709516.6287897
14683,39.32317808410153,64.37115803733468,42.77510574320331,23.550150020979345,1731709516.5680451
14719,-71.51997680263594,-72.40072324220091,-35.3327048313804,-39.93839162681252,1731709516.748427
14731,65.25938427681103,79.78328575473279,70.3119891169481,61.39045777264983,1731709516.8084557
14721,65.36036157561466,73.89668322447687,69.76222382346168,65.53426692355424,1731709516.7643175
14749,-84.14213915308937,-76.89608298894018,-45.078884115908295,-49.00016921944916,1731709516.8985572
14750,89.29198139207438,118.77548269275576,81.89445927971974,59.015621300786734,1731709516.8985572
14751,66.58330886112526,76.60811069235206,65.62963437242433,61.06882637646049,1731709516.913941
14752,-101.55137344682588,-102.21146578900516,-61.66908031934872,-52.508195377886295,1731709516.913941
14753,39.76822617882863,61.94396296609193,41.81021155463532,20.09448246192187,1731709516.9144704
14754,111.2900729314424,128.5441013770178,97.03357430035248,84.63019609730691,1731709516.9144704
14755,-55.31499029463157,-57.93853011354804,-24.617891458328813,-24.20837241318077,1731709516.92849
14756,-37.2587533085607,-20.801323553547263,-9.018768743146213,-22.60769523214549,1731709516.92849
14757,121.4850402106531,150.07844532188028,104.22914181509988,87.56601756252348,1731709516.9439423
14758,-3.135906112845987,2.81988456659019,13.05038089537993,15.943193511106074,1731709516.9439423
14759,-74.425879068207,-72.90934963617474,-42.19916115002707,-41.632566306740046,1731709516.9445136
14760,96.70072320429608,124.58728722389787,91.83137346198782,66.02793371770531,1731709516.9445136
14761,73.52082327893004,84.15896870288998,70.18857241841033,68.74310108553618,1731709516.9581935
14762,-98.9184838780202,-97.678707042709,-59.66075404314324,-51.84249318577349,1731709516.9581935
14763,37.58038470475003,54.894251549616456,39.427895282860845,20.266517859883606,1731709516.9739268
14764,108.15603676857428,126.3188609033823,97.00739500066264,80.83045774232596,1731709516.9739268
14765,-43.38844933593646,-48.45414382591844,-17.747695239726454,-12.9325740467757,1731709516.9744508
14766,-34.76050013815984,-18.699499778449532,-11.741415910888463,-21.36978834681213,1731709516.9744508
14767,122.1470025028102,148.9564753351733,106.2150286915712,85.47915338724852,1731709516.9883504
14768,-3.7529896055348217,2.094343975186348,15.844086162280291,18.53120428044349,1731709516.9883504
14671,60.28905723569915,70.88980366010219,55.917114187497646,59.85709879081696,1731709516.5085037
14748,1.3594536338932812,1.858730277977884,14.497722178231925,22.99664482753724,1731709516.8843508
14720,83.21090406412259,116.65121951792388,84.93499794369563,55.14856474660337,1731709516.748427
14747,127.53993823891506,158.49322022218257,118.01067315181716,91.02542502153663,1731709516.8843508
14745,-61.61672171996906,-68.4775681886822,-35.96848782384768,-26.848741781897843,1731709516.8842585
14722,-98.92596367793158,-99.06620992626996,-59.06237005023286,-51.34134659171104,1731709516.7643175
14723,35.63937662774697,60.51532118301839,44.96294721728191,21.212712548673156,1731709516.764397
14724,109.12841075705364,130.0213618595153,98.05082708830014,82.83504411857575,1731709516.764397
14725,-67.23031155345961,-68.64212378673255,-32.41184296598658,-25.461238898336887,1731709516.778165
14726,-35.97222772380337,-21.93077334016561,-11.191650617402049,-26.478491686284546,1731709516.778165
14727,120.8492572181858,151.963354899548,113.09270471008494,90.95810682233424,1731709516.79412
14728,-17.231589045841247,-16.0815698094666,1.6736052301712334,11.137422068044543,1731709516.79412
14729,-73.73025767644867,-66.2560676150024,-35.78523272601888,-41.288495510816574,1731709516.7945185
14730,82.07771437754855,112.88140036258848,78.31163512216881,55.316860244609416,1731709516.7945185
14732,-98.92222377797589,-95.21037307195364,-52.8578760237433,-49.52375521324575,1731709516.8084557
14733,29.65179679868743,53.54040776565671,36.85858401330188,12.947533646598458,1731709516.823868
14734,98.31262008519845,120.5781144713983,91.3975450671278,77.74504027888179,1731709516.823868
14735,-61.3811080227606,-62.78918035607785,-26.77581373276189,-23.59128892049193,1731709516.8245144
14736,-32.69233546266332,-20.771404353901744,-6.64767217123881,-18.74437857791781,1731709516.8245144
14737,128.8077643238939,154.2222544727847,110.16436304477976,85.91298178210855,1731709516.8385286
14738,-14.811873774509875,-12.678260849788783,2.889072715770453,4.2447864497080445,1731709516.8385286
14739,-85.9111118321307,-81.45128113497049,-45.048964916262776,-48.83187372144312,1731709516.8539908
14740,85.20053084054962,117.40667930897324,81.62892638286576,56.805340426974,1731709516.8539908
14741,70.81313571101055,84.12156970333308,74.30994216958061,68.26065399125218,1731709516.8545642
14742,-102.90147733082996,-105.6820929478854,-63.557729796972126,-51.00849549565464,1731709516.8545642
14743,31.9219160717912,56.2480953335762,39.401715983171016,16.388241605833173,1731709516.8684134
14746,-35.385063430760056,-25.14708730205893,-16.831419750582427,-18.66584067884833,1731709516.8842585
14744,117.0794380628504,136.82049997895956,105.46704870043322,88.40749505255371,1731709516.8684134
14670,95.09630612330513,120.48461697250605,84.0598613540642,62.72934195678681,1731709516.494474
14668,-18.318029982969165,-14.056413983460516,2.8404540163464844,6.7392997201532125,1731709516.4937503
14597,118.55856849532574,143.50557114975527,101.72340884478764,80.81923804245889,1731709516.1331065
14598,-16.739792201668024,-19.56902651814744,-0.9069257392548024,5.924001529812813,1731709516.1488738
14599,-80.54622534569353,-79.41490560909733,-55.40474789356813,-54.74091565143317,1731709516.1488738
14600,102.9033472808078,129.7427393128164,95.41419761953875,63.94480944238603,1731709516.1495152
14601,62.972435453906655,71.21704490622506,69.29847622895613,59.19887639861554,1731709516.1495152
14602,-98.47530573327094,-102.54244693508372,-61.83363591739908,-56.38647163193673,1731709516.1635492
14603,41.01174291409552,59.51863784482703,43.17901493841782,24.47764520999044,1731709516.1635492
14604,104.48158506210892,121.13348961481825,99.24759507412092,84.64889559708536,1731709516.1790726
14605,-75.0373527109623,-83.86912645632401,-37.57290490483865,-35.633766777813435,1731709516.1790726
14606,-16.706133102066815,-7.85565985692665,-4.2840553992427886,-13.377622141502798,1731709516.1795766
14607,118.96995749045163,143.14280085405335,101.90666394261643,79.71222765557468,1731709516.1795766
14608,-20.221639060415328,-23.5482800710015,1.2958753346465528,-1.9634474767372008,1731709516.1931467
14609,-71.74624074995518,-71.09736810764298,-42.618029945064336,-48.73089642263949,1731709516.1931467
14610,91.07404372096062,119.33085783617572,83.95514415530488,59.8047401914373,1731709516.2092435
14611,47.48550973739475,59.163347349036485,52.18469403171912,49.77806841023266,1731709516.2092435
14612,-103.99539806786925,-102.12357814004643,-62.21884561283514,-54.78953435085714,1731709516.2094955
14613,38.97723733820021,64.50766438571736,45.17612151475623,24.7169988071546,1731709516.2094955
14614,95.01215837430208,111.35739113064484,88.24854930443689,70.27646006736904,1731709516.2233963
14615,-61.24086177442223,-69.71360512403771,-31.667602874804288,-27.671519772149622,1731709516.2233963
14616,-21.27255094796419,-9.04868794279173,2.21215082379058,-12.648341650143266,1731709516.239174
14617,116.80829531606288,146.95001900894567,101.53267394704744,86.14859547931701,1731709516.239174
14596,-31.175806030631065,-16.775321251247078,-10.26415542839095,-25.206925701349974,1731709516.1331065
14618,-7.113289715722203,-7.86313965683803,15.028787971939892,14.349996129982172,1731709516.23955
14594,115.64144652988762,127.29310484183952,102.54244693508372,84.80223149526864,1731709516.119576
14592,-99.39906102232636,-108.42904946533965,-65.1958059775643,-62.50868785940111,1731709516.1190708
14669,-68.9600152829662,-70.6448402130045,-40.84531736606732,-39.25772983487696,1731709516.4937503
14572,-92.8617158997804,-94.6175989289768,-53.99106571031734,-48.54764132481069,1731709516.0132704
14573,44.79278176929802,71.49005760299042,48.276498578023165,29.893020345829427,1731709516.0132704
14574,108.32994211651383,123.09693709155545,98.402377684135,85.38191598840058,1731709516.029307
14575,-73.99392062332481,-76.91291253874078,-38.3321045958437,-32.9410388097167,1731709516.029307
14576,-27.671519772149622,-12.601592900697142,-3.928764903452248,-18.49754518084228,1731709516.029384
14577,116.19495172332972,141.85627526929602,99.29995367350055,77.01201988756657,1731709516.029384
14578,-12.06117735709995,-18.31616003299132,4.437391297426075,6.260592525824904,1731709516.0430784
14579,-78.03301257546991,-74.63157356576994,-44.14764902694151,-52.35485947970301,1731709516.0430784
14580,97.63008834328502,130.61787590244785,91.37884556734934,64.65165053401142,1731709516.0593195
14581,56.543547430075705,66.43745276285335,59.54855704447255,51.42736429069191,1731709516.0593195
14582,-98.7483184300363,-100.57899945834652,-61.6765601192601,-54.5090418541804,1731709516.0593936
14583,43.020069190301,65.53987677348778,46.81419769534841,24.1223547141999,1731709516.0593936
14584,99.81045001745224,115.0711117866449,88.73473629867658,76.32761819567531,1731709516.07335
14585,-71.8135589491576,-81.08664088929072,-43.100477039348334,-36.905332762748,1731709516.07335
14586,-25.40888029895723,-13.794620986562222,-4.385032698046416,-23.79324351809919,1731709516.0893157
14587,128.5553210768849,150.6413002652116,111.59300482785328,87.13966896757483,1731709516.0893157
14588,-13.534697939641774,-13.757221987005323,5.185371288564056,7.520938810892403,1731709516.0893996
14589,-77.68894177954644,-70.8654943103902,-45.3369372128509,-47.45185063779354,1731709516.0893996
14590,95.68534036632629,120.86047691805288,84.66572514688596,60.01791448891163,1731709516.10367
14591,53.88073866162449,62.66763360751793,50.50173905165866,46.70013074669987,1731709516.10367
14593,35.79832237586379,57.68982676649466,40.31051167240366,20.797583653591573,1731709516.1190708
14619,-71.41338965389878,-67.99325114442036,-32.72599456226453,-39.37366673350334,1731709516.23955
14595,-75.8900499008596,-80.3536204979755,-41.17816846212372,-36.6098806662485,1731709516.119576
14621,53.25991526897997,65.61841467255726,58.25455165980384,46.70761054661125,1731709516.2531528
14647,115.91071932669728,146.98741800850257,107.41927647730336,82.50219302251935,1731709516.3889394
14648,-10.568957274779676,-11.939630608540028,5.899692180100828,11.743285860866308,1731709516.389544
14649,-84.80971129518002,-83.90652545588091,-53.138368520420045,-53.54788756556809,1731709516.389544
14650,93.0449709976092,119.5215927339159,87.23877631640062,63.09211225248873,1731709516.4354506
14651,62.34413226135075,70.92159280972555,59.619615143630654,56.57346662972122,1731709516.4354506
14652,-92.08755660895258,-99.70760276867075,-56.87826847610995,-53.88821846153587,1731709516.435948
14653,39.96457092650235,62.5666563087143,46.01011920487508,26.11946129053831,1731709516.435948
14654,117.14488631207496,134.28671775897965,108.31311256671324,91.10770282056184,1731709516.436668
14655,-64.6254712343216,-69.80710262292996,-32.13135046930984,-25.221885301172733,1731709516.436668
14656,-36.19475177116692,-21.54369369475171,-12.066787207033483,-26.298976488411427,1731709516.4376397
14657,125.9149517081678,146.50871081417426,106.42446308908984,84.06921110395342,1731709516.4376397
14658,-20.2328587602824,-21.438976495992392,-1.7484032292850316,3.4369680592790246,1731709516.4489336
14659,-76.20794139709324,-67.21909185359254,-40.60222386894748,-45.98954975511879,1731709516.4489336
14660,86.67966127302498,112.83839151309805,79.57946120714769,60.37320498470217,1731709516.4494984
14661,60.89305107854307,64.31692948797718,55.24019229551777,55.50011534243822,1731709516.4494984
14662,-95.7152595659718,-95.19354352215304,-55.528164592105895,-50.34279330354184,1731709516.463683
14663,30.510103838518265,54.6754674022086,35.9984070234932,16.362062306143343,1731709516.463683
14664,106.5647093374282,125.99535955721512,93.9107578373514,81.87014993000776,1731709516.4788935
14665,-64.9171834308654,-71.9799844971858,-34.48748744139448,-25.188226201571524,1731709516.4788935
14666,-29.642447048798203,-18.525594430509955,-11.07571371877566,-23.157460525631905,1731709516.4795692
14620,99.65337421931326,125.20998056652024,91.96226996043696,68.19707569200546,1731709516.2531528
14646,-30.48766443878412,-20.855552102904767,-13.738522487226874,-24.91895340476185,1731709516.3889394
14645,-62.72186215687543,-63.37073479918763,-28.582185411360115,-25.640754096210003,1731709516.3734796
14667,134.77477470319718,155.69764500530437,114.50264699338004,94.75784517731518,1731709516.4795692
14622,-94.21555968374014,-100.19378976291046,-52.22209303127602,-53.86951896175742,1731709516.2689304
14623,33.87975369859487,56.02557128621265,35.72913422668353,16.747272001579404,1731709516.2689304
14624,109.17515950649975,128.1532818316482,96.55486710602418,79.08392446301877,1731709516.26957
14625,-68.59350508730859,-74.33612146927044,-36.20784142101184,-30.270750241354108,1731709516.26957
14626,-34.029349696822464,-17.657937640789896,-9.127225841861218,-21.26507114805281,1731709516.28342
14627,122.62383974716067,145.59617522498593,104.40865701297298,83.03325881622732,1731709516.28342
14644,108.83856851048768,130.99186589801684,101.45039614802226,87.34910336509347,1731709516.3734796
14629,-92.5213850038126,-90.64208527607845,-60.76028463011608,-57.97592911310494,1731709516.2989583
14630,104.8593149576336,128.20564043102786,94.64377822866663,64.38985753711313,1731709516.2995856
14631,61.5849325703457,70.53638311428949,65.06864937907085,59.0268410006538,1731709516.2995856
14632,-98.06765663810074,-104.46101561235264,-59.82156974123791,-55.05506724771112,1731709516.3135753
14628,-13.994705634191632,-14.26210848102346,5.383585986215621,13.66933433804661,1731709516.2989583
14634,106.27673704084008,123.72150038415566,94.46426303079352,84.58905719779432,1731709516.3289456
14635,-70.90102335996926,-75.79094255203381,-41.32402456039563,-33.03827620856464,1731709516.3289456
14636,-15.505625216290357,-1.049041937571019,7.152558665256947,-7.969726805575192,1731709516.3295732
14637,129.9540436603129,158.34549417393282,116.53341266931966,93.4526200927794,1731709516.3295732
14638,-13.863809135742486,-13.820800286252052,4.826340892817825,8.220300102606416,1731709516.3432066
14639,-79.28587906062603,-69.51165052643046,-37.47566750599072,-45.37620616238564,1731709516.3432066
14640,91.36575591750444,123.26897248951718,88.42806450231001,62.938776354305446,1731709516.3588395
14641,56.99607532471418,69.54530962603167,63.51285099750385,58.548133806325495,1731709516.3588395
14642,-98.90913412813096,-102.51626763539387,-56.55663707992062,-51.0608540950343,1731709516.3594675
14643,43.56983448378742,63.22861860087141,46.37662940053269,26.018483991734684,1731709516.3594675
14633,37.73933045286685,64.16359358979389,47.464940287638456,21.545563644729555,1731709516.3135753
14906,-37.34851090749726,-27.778106920886785,-14.2471488812007,-24.03820696519688,1731709517.6796367
14905,-46.82167749525979,-49.30497106583789,-17.358745644334704,-11.180430917534975,1731709517.678971
14904,112.65887631522492,132.5663637793623,103.18196982750668,86.26640232792124,1731709517.678971
14903,27.53127352381125,47.15452859131619,31.817198873031884,13.727302787359804,1731709517.6631646
14898,11.139292018022388,13.746002287138252,25.253674450796098,26.75711423298344,1731709517.6492023
14901,73.10195448389277,87.17519801715389,64.65726038394496,60.15442083729431,1731709517.6496167
14900,89.53881478914991,114.76443999027832,83.39415916195139,57.61876866733655,1731709517.6496167
14899,-87.12283941777423,-84.16457855282351,-49.82855705963448,-55.03075789799914,1731709517.6492023
14902,-86.9844631194137,-92.8448863499798,-53.50861861603335,-44.652535520959646,1731709517.6631646
14907,127.59229683829471,153.15077313547954,109.8165523489006,85.18557124072686,1731709517.6796367
14919,-86.24770282814279,-84.4301114496775,-47.94738738192245,-53.84520961204544,1731709517.7395215
14909,-68.63277403684333,-63.44553279830143,-38.78837239043787,-39.09504418680445,1731709517.693101
14910,93.3983915434219,117.08317796280608,81.77852238109335,63.29593680007383,1731709517.7088091
14911,69.5714889257215,84.5759675479494,68.04186984384432,60.39751433441416,1731709517.7088091
14912,-82.32454777462408,-86.83486712118611,-46.81419769534841,-41.12954976269975,1731709517.7094927
14913,30.39977678982541,51.058984145056456,35.21302803279832,17.695336640346795,1731709517.7094927
14914,118.54921874543652,136.53439763234928,100.57525955839084,86.29632152756676,1731709517.723127
14915,-45.58003070997074,-47.64071558555588,-15.533674465958027,-7.216136964503676,1731709517.723127
14916,-39.5550518813543,-27.09370522899553,-16.117098859045655,-25.96051554242149,1731709517.7389865
14917,116.05096557503566,140.36779508693144,99.9918351653032,78.18073862371966,1731709517.7389865
14897,121.60097710927948,153.2442706343718,110.80014603724705,90.14467858197168,1731709517.6331508
14918,13.828280086163431,18.903324326034635,28.78040010901168,28.155836816411465,1731709517.7395215
14908,10.604486324358732,12.597853000741452,24.326179261785,25.855798343662173,1731709517.693101
14896,-41.813951454591006,-28.69064251007512,-11.87231240933761,-23.391204272862524,1731709517.6331508
14884,118.84841074189173,137.70498631848022,107.12008448084816,95.290780921001,1731709517.573531
14894,128.1906808312051,148.02711019618437,113.95662159984931,97.86383209051564,1731709517.6196153
14872,-91.9510502605699,-97.63195829326288,-51.11134274443612,-51.34695644164458,1731709517.52994
14873,33.68714885087684,47.21062709065154,37.801038802135736,20.05147361243144,1731709517.52994
14874,110.67298943875358,130.6029163026251,93.88831843761729,84.61710644746199,1731709517.5302746
14875,-61.57558282045648,-61.68777981912717,-30.05196609394625,-23.16681027552113,1731709517.5302746
14876,-38.31340509606525,-25.52668714756146,-12.825986898038536,-22.25801458628848,1731709517.5311687
14877,120.06387822749092,147.55588280176744,104.1805231156759,82.7995150689967,1731709517.5311687
14878,18.009488236624748,18.73876872798428,36.189141921233386,31.16645628074184,1731709517.5435524
14879,-86.07192753022537,-76.69225844135508,-45.123762915376574,-45.99889950500801,1731709517.5435524
14880,85.32394753908738,111.7799998256378,78.80530191631988,56.20882638404146,1731709517.5593064
14881,66.33273556409404,77.66089252987877,73.0159367849119,61.05199682665989,1731709517.5593064
14882,-89.58369358861819,-94.01173513615504,-51.492812539916486,-47.083470492158085,1731709517.5593815
14883,28.668203110340983,51.43671404058114,34.150896445382386,18.551773730199784,1731709517.5593815
14885,-60.62938813166693,-60.640607831534,-27.837945320177823,-28.38397071370855,1731709517.573531
14886,-27.16102342819795,-21.263201198074967,-5.985709879081696,-13.203716793563215,1731709517.5892138
14887,120.7408001194708,149.2874564812519,104.2179221152328,83.92896485561505,1731709517.5892138
14888,6.468156973365694,7.429311261978,20.10009231185541,23.55575987091288,1731709517.5895927
14889,-83.12488636514172,-74.54555586678907,-41.72419385565445,-43.36974983615801,1731709517.5895927
14890,94.28100793296473,119.54777203360572,84.33661395078525,65.28556357650086,1731709517.603136
14891,77.12234693625942,97.20934959826992,79.88987290346995,75.24491715850309,1731709517.603136
14892,-90.78420147439464,-96.8428394026123,-53.19446701975539,-46.47012689942494,1731709517.619191
14893,19.202516322489828,43.17153513850644,30.1080645932816,7.679884559009224,1731709517.619191
14895,-47.64819538546726,-53.27300491882488,-19.662524017039686,-18.147864534985278,1731709517.6196153
14920,93.33481324417517,114.94021528819576,86.72267012251541,64.48148508602753,1731709517.753471
14968,9.748049234505745,6.24750287597999,22.145817587617785,21.24450169829652,1731709517.9930568
14922,-88.80579439783469,-84.29921495122835,-41.06971136340872,-35.31400533160195,1731709517.7689872
14948,11.46092341421172,10.170657929498702,19.07161982404068,23.60063867038116,1731709517.892547
14949,-80.53313569584861,-82.99024996673688,-40.620923368725926,-41.32028466043994,1731709517.892547
14950,87.97553660767153,110.34387824265286,79.71409760555252,52.65966132609174,1731709517.9034998
14951,68.93196603329852,83.33432076266035,67.60056164907292,58.66220075497404,1731709517.9034998
14952,-91.913651261013,-95.74704871559516,-55.25889179529622,-49.75375906052068,1731709517.9193304
14953,14.045194283593446,35.90116962464526,24.486994959879667,4.822600992862135,1731709517.9193304
14954,124.20394747843966,141.03349727904424,111.00584053480998,93.3273334442638,1731709517.919404
14955,-50.52791835134849,-58.56122345617041,-22.916236978489906,-21.85410539107397,1731709517.919404
14956,-38.71731429127976,-29.719114997889847,-14.27332818089053,-28.58966521127149,1731709517.93363
14957,122.6668485966511,147.2417312054895,105.85225839586928,82.55642157187685,1731709517.93363
14958,4.269095799420029,9.976183131802827,22.90875717857853,20.27960750972852,1731709517.948818
14959,-97.42252389574423,-94.55776052968577,-61.50078482134268,-60.41995373414829,1731709517.948818
14960,80.90338579146191,105.55306639941408,72.95609838562086,48.84870327124372,1731709517.9495516
14961,74.59043466625735,87.75862241024151,70.76451701158658,61.72517881868407,1731709517.9495516
14962,-89.67719108751044,-95.72460931586102,-51.934120734687895,-47.38266248861328,1731709517.9631176
14963,23.020954177249223,45.50149281090125,32.04533277032897,12.478176202159377,1731709517.9631176
14964,116.16316257370636,139.69461309490725,106.41698328917846,90.3204538798891,1731709517.9787445
14965,-58.119915261399,-64.09253549063578,-32.06777217006311,-21.207102698739615,1731709517.9787445
14966,-57.71974596614018,-44.27106572547928,-30.02204689430073,-43.95317422924563,1731709517.979456
14967,124.43956117564812,152.3167754453607,106.67503638612106,81.02306259004399,1731709517.979456
14871,71.73689100006595,82.91919186757877,69.52287022629753,64.53384368540719,1731709517.50098
14947,118.95686784060672,148.11312789516523,104.60313181066886,82.59756047138944,1731709517.8917215
14946,-47.86136968294159,-37.75989990262315,-26.854351631831378,-30.224001491907984,1731709517.8917215
14945,-51.481592840049416,-55.6740206903778,-23.701615969184783,-17.732735639903694,1731709517.8909862
14944,119.77216603094712,140.12844148976728,101.82064624363557,89.16856469353661,1731709517.8909862
14923,20.75831470405683,42.50957284634933,30.646610186900944,10.125779130030423,1731709517.7689872
14924,117.87977665336804,143.72622524714097,112.43074241792785,89.21344349300489,1731709517.7695968
14925,-59.45879944553599,-60.76028463011608,-31.016860282514244,-23.234128474723548,1731709517.7695968
14926,-40.85653706593439,-24.513174259569496,-12.029388207476586,-21.8802846907638,1731709517.7835913
14927,131.80342418840155,158.11362037668005,114.3268716954626,88.69733729911968,1731709517.7835913
14928,18.402177731972188,17.317606744822115,30.684009186457843,25.99043474206701,1731709517.799333
14929,-77.69455162947997,-81.88697947980836,-48.37747587682679,-51.919161134865135,1731709517.799333
14930,86.24770282814279,112.07545192213728,75.18133885925636,50.43816075241193,1731709517.7994063
14931,72.24551739403978,86.46087712561712,70.82435541087762,59.63083484349772,1731709517.7994063
14932,-94.19499023398384,-102.53870703512804,-57.9366601635702,-52.05379753326997,1731709517.813662
14921,71.54989600228146,88.99652929557487,75.49549045553431,64.85173518164083,1731709517.753471
14933,29.449842201080173,51.94534043455496,40.74807996721938,16.405071155633777,1731709517.813662
14935,-60.360115334857255,-58.336829458829015,-25.773520544636995,-20.0664332122542,1731709517.8290484
14936,-34.69318193895742,-23.96714886603877,-15.099846071098,-26.540200035553426,1731709517.82963
14937,120.52762582199648,152.5037704431452,103.65693712187932,79.80011530453339,1731709517.82963
14938,12.915744496975094,12.983062696177512,24.7338283569552,26.098891840782017,1731709517.8434403
14939,-85.64557893527672,-79.99459010222927,-46.713220396544784,-48.31389757758007,1731709517.8434403
14940,92.62797215254976,116.16316257370636,87.84838000917807,58.84545585280284,1731709517.8598104
14941,72.43999219173566,75.49923035549,71.54989600228146,63.20991910109296,1731709517.8598104
14942,-93.06928034732118,-100.03671396477148,-53.504878716077656,-51.3020776421763,1731709517.89048
14969,-79.80011530453339,-79.51588290790096,-44.81335121905431,-51.29085794230923,1731709517.9930568
14943,21.2893804977648,42.4833935466595,27.441515924874693,9.699430535081774,1731709517.89048
14934,120.54632532177492,143.11662155436352,105.52688709972426,88.88059239694849,1731709517.8290484
14870,94.89809142565356,119.2093110876158,88.34952660324052,61.94770286604762,1731709517.5002403
14795,-47.25924579007551,-52.62787217646837,-20.26464790990576,-17.28207769524306,1731709517.1244912
14868,7.631265859585255,5.916521729901433,21.8802846907638,21.126694849692285,1731709517.4995368
14796,-39.495213482063264,-25.831488993950188,-18.802347027231008,-30.199692142196,1731709517.1244912
14797,117.1467562620528,138.01726796478033,98.30888018524274,77.93577517662197,1731709517.138199
14798,2.743216617498547,3.706240856088698,12.855906097684056,15.060577121563256,1731709517.138199
14799,-82.36568667413667,-79.03156586363912,-46.3354905010201,-48.78699492197484,1731709517.1542227
14800,82.85187366837636,113.74157735239714,78.48741042008623,53.37211226765066,1731709517.1542227
14801,74.0144900730811,81.44006143510342,67.26023075310513,60.57889948226512,1731709517.1546264
14802,-90.25313568068668,-95.32630997058004,-55.524424692150205,-46.101746753789485,1731709517.1546264
14803,31.409549777861685,50.76166209857911,36.74638701463118,13.426240840926766,1731709517.168583
14804,107.64367047464476,127.287494991906,98.9596227775328,80.46394754666835,1731709517.168583
14805,-59.52237774478272,-57.41120421979576,-28.238114615436643,-23.980238515883684,1731709517.183781
14806,-39.14366288622841,-28.55039626173675,-21.210842598695308,-23.95405921619385,1731709517.183781
14807,123.60930338548496,151.8997766003013,110.6243707393296,85.93542118184268,1731709517.184975
14808,-0.4469180447049439,5.449034235440195,18.132904935162514,20.012204662896693,1731709517.184975
14809,-82.70975747006014,-81.69437463209033,-48.79634467186406,-49.90522500872612,1731709517.1982143
14810,91.44242386659607,122.36952655017376,84.04490175424144,58.83984600286931,1731709517.1982143
14811,66.61696796072647,76.46599449403584,65.02003067964688,55.60857244115323,1731709517.2140777
14812,-97.5122814946808,-105.85786824580282,-58.29195065936074,-52.97942277230322,1731709517.2140777
14813,30.54937278805301,55.86662553809583,40.82661786628887,22.402000734582543,1731709517.2146268
14814,110.30647924309596,131.1732510458678,99.98809526534752,83.7064408082515,1731709517.2146268
14815,-58.84171595284715,-62.216975662857294,-28.204455515835438,-19.75415156595409,1731709517.2286494
14816,-40.19083487382159,-28.782270058989525,-13.401931491214782,-27.43216617498547,1731709517.2286494
14794,107.15374358044936,125.52600211277604,94.86443232605234,79.92166205309331,1731709517.1244135
14793,31.11035778140649,54.29960745666176,36.04328582296148,9.533004987053571,1731709517.1244135
14792,-98.6604307810776,-100.59208910819144,-56.6015158793889,-51.59939968865365,1731709517.1083932
14791,66.80022305855528,75.64321650378406,60.01604453893378,55.88906493782997,1731709517.1083932
14869,-90.7281029750593,-87.44260086398572,-57.47291256906465,-54.6922969520092,1731709517.5002403
14770,84.725563546177,110.25599059369416,77.00267013767734,51.80509418621659,1731709517.0041337
14771,75.44687175611034,88.40749505255371,74.04440927272663,67.48275480046868,1731709517.004564
14772,-88.06529420660809,-94.95605987496674,-55.68150049028918,-46.075567454099655,1731709517.004564
14773,30.31749899080023,52.99438237212598,36.76508651440963,16.347102706320584,1731709517.0182483
14774,113.30587900755928,136.20341648627073,102.08243924053386,83.84481710661203,1731709517.0182483
14775,-60.04970363853499,-62.48624845966697,-26.37938433745876,-22.31598303560168,1731709517.0341637
14776,-43.62780293310061,-37.51867635548115,-23.417383572552357,-35.229857582598925,1731709517.0341637
14777,125.9280413580127,150.75536721386015,109.74923414969815,84.94434769358486,1731709517.0346029
14778,-0.7161908415146172,3.4855867587029934,19.93927661376074,17.947779887355864,1731709517.0346029
14817,128.32531722960994,156.02488625142723,112.34472471894696,86.10371667984873,1731709517.2443037
14779,-83.13984596496448,-74.67458241526037,-48.47471327567473,-49.0226086191833,1731709517.0485897
14781,64.36928808735684,72.92056933604181,63.80082329409197,54.987749048508704,1731709517.0644436
14782,-100.55656005861238,-109.3471949044615,-61.90469401655719,-59.22131579834968,1731709517.0644436
14783,33.032666358631104,55.81426693871617,38.34706419566646,20.726525554433465,1731709517.0645225
14784,114.925255688373,135.6536511927843,102.55740653490648,88.38131575286388,1731709517.0645225
14785,-57.47665246902034,-64.77880713250488,-29.7004154981114,-24.817976105958223,1731709517.0783513
14786,-30.904663283843547,-17.2671180954203,-9.291781439911574,-20.55823005642742,1731709517.0783513
14787,128.50483242748305,157.8873564293608,109.65199675085024,87.7081337608397,1731709517.0944903
14788,-0.0205694497562944,2.655328968539834,16.786540951114148,16.788410901091993,1731709517.0944903
14789,-77.3168217339553,-70.95338195934892,-41.12954976269975,-50.40637160278857,1731709517.0945694
14790,101.13250465178862,121.8384607564658,85.2790687396191,66.14761051628739,1731709517.0945694
14780,91.98096946021542,123.30824143905193,82.77333576930687,57.78145431540906,1731709517.0485897
14818,-11.333766815718263,-10.198707179166377,6.030588678549975,10.176267779432235,1731709517.2443037
14769,-81.2437166874297,-79.25595986098051,-47.15452859131619,-51.39744509104639,1731709517.0041337
14820,80.04694870160893,109.17515950649975,75.37207375699654,55.15604454651475,1731709517.2444043
14847,129.18175431946293,151.1779759088531,111.35365123068914,86.70210067275912,1731709517.3938627
14848,2.7095575178973377,4.521539046429098,18.002008436713368,23.206079225055877,1731709517.3938627
14849,-78.89879941521212,-75.62451700400561,-43.006979540456086,-45.36498646251857,1731709517.3944612
14850,88.12139270594344,118.1621391000226,79.92727190302685,59.83839929103851,1731709517.3944612
14851,69.85572132235393,77.87967667728662,65.28182367654517,59.22131579834968,1731709517.408585
14852,-98.44351658364758,-96.92698715161532,-54.62310880282894,-53.727402763441205,1731709517.408585
14853,33.2944593555294,53.38333196751773,43.81479793088511,23.022824127227068,1731709517.4240742
14854,104.47971511213107,125.99722950719296,94.00425533624366,83.96075400523841,1731709517.4240742
14855,-53.20194681966677,-64.78254703246057,-26.472881836351007,-22.267364336177707,1731709517.4245768
14856,-30.72888798592612,-27.548103073611856,-12.044347807299346,-23.35941512323916,1731709517.4245768
14857,124.6751748728566,150.45991511736065,113.18994210893288,86.79933807160705,1731709517.4384732
14858,4.983416690956801,4.936667941510677,21.311819897498932,19.051050374284387,1731709517.4384732
14859,-81.30729498667642,-77.58048468083143,-44.91432851785794,-47.45933043770492,1731709517.45419
14860,87.92691790824756,114.1267870478332,80.37605989770964,55.96386293694377,1731709517.45419
14861,77.33926113368943,91.55275091528893,78.51358971977606,69.8501114724204,1731709517.4546092
14862,-90.53362817736344,-93.23944579530507,-53.32536351820454,-44.456190773285925,1731709517.4546092
14863,35.58701802836731,51.07581369485706,41.27166596101597,22.91062712855637,1731709517.4681942
14864,118.05181205132976,137.3291263729334,101.3643784490414,86.62730267364532,1731709517.4681942
14865,-49.7088802610524,-52.945763672702014,-19.767241215799004,-16.586456303484738,1731709517.483958
14866,-47.4873796873726,-40.58165441919118,-21.05376680055633,-31.39272022806108,1731709517.483958
14819,-77.08120803674683,-74.32303181942552,-37.89079640107229,-43.218283887952566,1731709517.2444043
14846,-36.64914961578325,-26.98337818030268,-15.0624470715411,-27.054436279460788,1731709517.378527
14845,-42.677868344355375,-46.79736814554781,-13.143878394272178,-9.985532881692052,1731709517.378527
14867,129.566964014899,154.91413596458733,111.6266639274545,84.60401679761708,1731709517.4995368
14843,33.96764134755358,58.136744811199605,46.41776830004528,19.851388964802027,1731709517.364637
14844,108.90027685975656,130.93015754874796,98.2153826863505,82.7415466196835,1731709517.364637
14821,64.13367439014837,76.35379749536514,62.14404761372134,58.67903030477464,1731709517.258375
14822,-100.87819145480172,-104.15247386600822,-61.197852924931794,-52.96072327252477,1731709517.258375
14823,26.140030740294605,50.45873020216823,32.965348159428686,11.552550963126125,1731709517.2741995
14824,104.63679091027008,125.89251230843364,97.16821069875732,82.14316262677312,1731709517.2741995
14825,-42.42729504732415,-42.85177369229496,-10.593266624491662,-8.83364369533956,1731709517.274487
14826,-40.00757977599278,-29.9416390452534,-17.620538641232997,-30.23335124179721,1731709517.274487
14828,-4.867479792330414,-4.5664178458973765,14.191050381865352,15.483185816556215,1731709517.288244
14829,-84.84524034475908,-82.56577132176608,-44.28602532530204,-50.896298496983945,1731709517.3038473
14830,84.12343965331092,111.4228393798694,78.99229691410437,54.36318575590849,1731709517.3038473
14831,73.15057318331674,87.8577297590673,81.51298948423937,66.89185060746968,1731709517.3045688
14827,120.83055771840736,147.20620215591043,104.9958213060163,81.83275093045086,1731709517.288244
14833,26.629957634489983,48.66357822343707,31.402069977950305,17.6373681910336,1731709517.3181903
14834,112.8496112129651,131.08349344693124,95.77696791524068,80.21711414959282,1731709517.3181903
14835,-54.72034620167688,-62.37031156104058,-27.36671792576089,-19.72797226626426,1731709517.3338811
14842,-96.22201600996776,-98.12749503739178,-51.45915344031528,-45.53328196052462,1731709517.363933
14836,-44.61139662144706,-28.73739125952125,-22.033620588947088,-28.21006536576897,1731709517.3338811
14837,123.38490938814356,147.27726025506854,103.43254312453791,80.35923034790903,1731709517.3345394
14838,10.69798382325098,9.708780284971,24.01202766550705,27.944532468914986,1731709517.3345394
14839,-78.04984212527052,-71.37599065434188,-45.90540200611576,-45.38742586225271,1731709517.348418
14840,83.01642926642671,110.26721029356122,78.28919572243467,54.90173134952784,1731709517.348418
14841,69.99783752067015,79.53271245770156,67.58560204925016,60.45548278372735,1731709517.363933
14832,-99.19149657478556,-101.23909180052578,-60.93979982798919,-51.01223539561033,1731709517.3045688
15106,-60.18434003693983,-49.19651396712288,-35.373843730892986,-40.8901961655356,1731709518.6838603
15105,-43.38096953602508,-45.23595991404727,-15.402777967508882,-12.066787207033483,1731709518.6838603
15104,127.16968814330176,146.72936491155997,115.4825007817708,96.72316260403022,1731709518.6681297
15099,-89.29946119198576,-88.30464780377224,-47.62575598573312,-53.097229620907456,1731709518.6539204
15102,-78.28171592252329,-86.69649082282558,-44.0765909277834,-42.270219249185175,1731709518.6546335
15101,89.52759508928284,98.63425148138776,82.16373207652941,69.53782982612029,1731709518.6546335
15100,83.37919956212863,101.03526725294068,77.52251623151824,50.273605154361576,1731709518.6539204
15107,117.57684475695714,141.6468408717774,104.13564431620762,74.8335281633772,1731709518.6845484
15103,26.267187338788062,46.49256629915908,34.01999994693324,18.8434859267436,1731709518.6681297
15108,29.57325889961794,34.1471565454267,43.17901493841782,41.00987296411768,1731709518.6845484
15119,-78.7230241172947,-81.4643707848154,-41.0734512633644,-45.15742201497778,1731709518.744467
15110,76.00785674946383,103.75417452072725,74.01075017312542,52.83169672405347,1731709518.698154
15111,83.81302795698866,99.32987287314609,79.79263550462201,70.62988061318174,1731709518.713854
15112,-91.431204166729,-99.5505269705318,-56.58655627956614,-48.5607309746556,1731709518.713854
15113,25.298553250264376,45.30701801320538,33.15234315721318,9.942524032201618,1731709518.7145157
15114,124.58541727392004,147.67555960034952,110.05216604610904,93.54798754164948,1731709518.7145157
15115,-37.91323580080643,-42.93592144129798,-15.04748747171834,-10.29407462803647,1731709518.7280133
15116,-51.20858014328405,-43.99431312875822,-24.606671758461744,-32.37818386638537,1731709518.7280133
15117,120.10127722704785,151.1686261589639,104.13564431620762,81.22127728769556,1731709518.7437773
15118,12.070527106989177,18.27876103343442,25.95303574251011,25.56408614711836,1731709518.7437773
15098,16.431250455323607,20.518961106892675,28.215675215702504,23.12193147605285,1731709518.6395552
15109,-84.71808374626562,-83.18098486447707,-46.14101570332423,-48.310157677624375,1731709518.698154
15097,122.35643690032884,155.54430910712108,109.94370894739404,88.56270090071484,1731709518.6395552
15084,120.09005752718076,140.5248708850704,103.6195381223224,87.7997613097541,1731709518.5645597
15094,120.7819390189834,141.03723717899993,108.56742576370016,95.04020762396976,1731709518.6238737
15120,77.055028737057,100.19378976291046,71.04500950826332,48.310157677624375,1731709518.744467
15072,-93.11415914678946,-97.04105410026386,-60.12824153760448,-48.643008773680776,1731709518.5045664
15073,15.50375526631251,34.203255044762045,21.99622158939019,2.945171215105802,1731709518.5181415
15074,124.72753347223625,145.55877622542903,115.10477088624611,93.63400524063036,1731709518.5181415
15075,-47.509819087106735,-50.58775675063953,-20.548880306538194,-12.373459003400058,1731709518.5340796
15076,-51.25345894275233,-44.66375522082672,-28.00250091822818,-35.471081129740924,1731709518.5340796
15077,134.81030375277624,160.67919174628332,119.4093957352452,87.74740271037444,1731709518.5344765
15078,12.994282396044582,15.208303169813007,26.087672140914947,26.7346748332493,1731709518.5344765
15079,-89.68467088742182,-88.9890494956635,-52.74193912511692,-52.07623693300411,1731709518.5485482
15080,82.1674719764851,111.32747193099932,81.43071168521419,55.31125039467588,1731709518.5485482
15096,-51.39931504102424,-41.454921058844775,-25.377091149333864,-34.973674435634166,1731709518.6390288
15081,81.71868398180231,104.4385762126185,82.44796447316185,71.84534809878096,1731709518.5639806
15083,16.865078850183636,36.42849551839754,26.34198533790186,7.679884559009224,1731709518.5645597
15085,-48.310157677624375,-50.43442085245624,-16.539707554038614,-13.977876084391028,1731709518.5781734
15086,-48.39617537660524,-38.67617539176717,-22.867618279065937,-33.46275485353544,1731709518.5781734
15087,120.91657541738824,147.58580200141296,107.15374358044936,77.88902642717585,1731709518.594179
15088,19.58024621801451,24.52065405948088,34.79415923776105,31.50304727675393,1731709518.594179
15089,-83.82050775690004,-85.6530587351881,-46.83289719512686,-56.63517497899011,1731709518.5945375
15090,86.70023072278127,109.90630994783714,84.58718724781647,54.731565901543945,1731709518.5945375
15091,86.59925342397764,98.2490417859517,77.84788752766326,68.2363446415402,1731709518.6083531
15092,-91.16193136991932,-94.33710643230006,-52.23705263109878,-47.7080337847583,1731709518.6083531
15093,25.20879565132782,43.433328135404736,36.70524811511859,13.207456693518909,1731709518.6238737
15082,-99.5430471706204,-100.01053466508164,-55.46832619281486,-48.661708273459226,1731709518.5639806
15121,89.11620609415695,103.85141191957518,83.42407836159691,74.42961896816269,1731709518.758128
15145,-24.240161562804133,-33.74698725016788,-3.84274720447138,-4.414951897691935,1731709518.8791687
15123,13.734782587271184,30.646610186900944,22.78160058008507,5.794974981341511,1731709518.773838
15150,77.48885713191703,106.880730883684,75.7236243528314,51.51899183960632,1731709518.8945353
15151,81.2437166874297,95.6236320170574,78.2779760225676,68.28496334096417,1731709518.9080873
15152,-85.02475554263219,-83.43903796141967,-45.14246241515502,-43.40714883571491,1731709518.9080873
15153,8.21843015262857,37.71128120319918,26.9216698310338,8.742016146425158,1731709518.9238029
15154,116.1818620734848,143.50931104971096,104.74898790894076,89.0227085952647,1731709518.9238029
15155,-38.30966519610956,-37.14655630989,-7.732243158388883,-7.934197755996138,1731709518.9244962
15156,-51.41801454080269,-47.99600608134642,-27.422816425096244,-36.40979601861909,1731709518.9244962
15157,127.84287013532594,153.59208133025095,114.83923798939212,87.2836551158689,1731709518.938146
15158,22.594605582300574,26.087672140914947,33.10372445778921,33.1074643577449,1731709518.938146
15159,-98.54075398249552,-94.74475552747026,-60.64808763144538,-64.09253549063578,1731709518.9537833
15160,66.31403606431559,88.23732960456982,61.66534041939303,40.54986526956782,1731709518.9537833
15161,93.52180824195966,107.55765277566388,91.08713337080552,71.08614840777591,1731709518.9545753
15162,-84.08604065375403,-90.37281247926876,-47.80527118360624,-42.09818385122344,1731709518.9545753
15163,19.52414771867916,33.27201995579526,29.23292800365016,9.07860714243725,1731709518.9680972
15164,116.2230009729974,140.35657538706437,105.05191980535164,85.23792984010652,1731709518.9680972
15165,-51.937860634643584,-51.56761053903029,-22.632004581857476,-16.120838759001344,1731709518.983748
15166,-59.82904954114929,-48.669188073370606,-34.10227774595842,-38.616336992476135,1731709518.983748
15167,129.76517871255055,158.8728200676851,113.36571740685032,86.36737962672487,1731709518.9845245
15168,21.614751793909814,21.15474409935996,31.02060018246993,32.41558286594227,1731709518.9845245
15169,-90.58598677674308,-90.48874937789516,-51.72468633716926,-50.56905725086108,1731709518.9981215
15170,68.2737436410971,95.97518261289224,64.3805077872239,43.62406303314492,1731709518.9981215
15149,-82.5003230725415,-80.56305489549413,-50.329703653696924,-49.30871096579358,1731709518.8945353
15148,19.56902651814744,23.85869176732376,36.3312581195496,35.13075023377314,1731709518.8938503
15147,124.90704867010936,154.3176219216548,109.72679474996404,85.74281633412465,1731709518.8938503
15146,-56.56037697987631,-47.031111892778426,-31.671342774759975,-38.16754899779335,1731709518.8791687
15124,113.08522491017357,128.84142342349514,92.99448234820738,85.55582133634016,1731709518.773838
15125,-33.30567905539647,-38.65747589198872,-10.765302022453398,-1.931658327113837,1731709518.7745492
15126,-47.31908418936655,-41.60077715711668,-25.62766444636509,-34.86895723687485,1731709518.7745492
15127,128.94240072229877,156.6139204944484,113.59759120410308,87.52300871303305,1731709518.7883887
15128,24.38601766107604,27.052566329482943,33.825525149237365,33.06632545823231,1731709518.7883887
15129,-78.03114262549207,-81.77478248113766,-48.261538978200406,-47.60705648595467,1731709518.804073
15130,74.24262397037819,97.9872487890534,69.45181212713942,51.29459784226492,1731709518.804073
15131,97.15325109893456,103.01367432950065,86.65535192331299,78.65570591809228,1731709518.8045511
15132,-83.30440156301484,-93.45822994271292,-56.59777597943321,-47.21062709065154,1731709518.8045511
15133,13.693643687758597,29.56577909970656,19.767241215799004,14.067633683327584,1731709518.8184724
15122,-84.90507874405012,-88.66741809947416,-46.79923809552565,-40.40400917129591,1731709518.758128
15134,124.84347037086263,146.0150440200232,108.15603676857428,91.2816081685014,1731709518.8184724
15136,-49.67896106140688,-41.26792606106028,-26.267187338788062,-32.8868102603592,1731709518.8344538
15137,125.02672546869144,156.0978143005632,108.42904946533965,88.2448094044812,1731709518.8345847
15138,19.52414771867916,22.661923781502992,27.714528621640056,33.31315885530785,1731709518.8345847
15139,-82.22357047582045,-79.99459010222927,-49.77993836021051,-45.845563606824726,1731709518.8483872
15140,74.40343966847286,95.56753351772204,64.21221228921786,44.10277022747323,1731709518.8483872
15141,76.88673323905095,91.66307796398178,70.40548661584035,64.18603298952803,1731709518.8643196
15142,-85.10329344170168,-92.93090404896066,-53.84146971208975,-42.83494414249435,1731709518.8643196
15143,27.31435932638124,45.90166210616008,39.94400147674605,22.486148483585566,1731709518.864506
15144,119.53655233373864,147.40628680353984,108.12611756892876,90.1334588821046,1731709518.864506
15071,75.49923035549,91.25168896885587,73.1991918827407,64.23839158890769,1731709518.5041516
15135,-39.52513268170878,-42.03460555197671,-12.818507098127156,-12.26126200472936,1731709518.8344538
15070,75.24491715850309,98.10692558763547,68.04186984384432,45.20978061435744,1731709518.5041516
15095,-38.219907597173005,-40.8901961655356,-12.422077702824026,-7.45923046162352,1731709518.6390288
15068,18.200223134364933,19.96171601349488,31.764840273652226,30.37733739009127,1731709518.4895775
14996,-45.59125040983781,-33.49267405318096,-17.672897240612656,-26.42800303688273,1731709518.1294155
14997,122.23302020179108,148.4983375906013,100.07411296432838,82.07023457763717,1731709518.1294155
14998,21.88776449067518,18.79860712727532,32.0715120700188,31.7386609739624,1731709518.1437526
14999,-89.40043849078938,-87.81846080953255,-55.21775289578363,-56.294844083022326,1731709518.1437526
15000,75.28605605801567,97.69927649246527,71.59477480174974,48.80382447177544,1731709518.1591249
15001,75.22995755868033,85.20053084054962,70.4989841147326,62.80600990587845,1731709518.1591249
15002,-82.76959586935118,-88.96287019597366,-45.00034621683881,-43.13413613894954,1731709518.159612
15003,17.590619441587478,38.80707189021632,29.689195798244327,12.953143496531991,1731709518.159612
15004,107.13130418071523,127.75311253638938,93.64522494049744,81.67006528237835,1731709518.1735446
15005,-60.14320113742724,-63.99155819183216,-27.348018425982445,-21.52873409492895,1731709518.1735446
15006,-50.48303955188021,-44.02797222835943,-24.326179261785,-34.7754597379826,1731709518.18919
15007,108.1822160682641,136.83358962880448,90.64582517603412,76.18737194733694,1731709518.18919
15008,14.2471488812007,16.823939950671047,26.34946513781324,26.80573293240741,1731709518.1896114
15009,-99.46450927155092,-91.30030766827986,-60.67052703117952,-59.76921114185825,1731709518.1896114
15010,77.21584443515167,100.1002922640182,70.98891100892797,49.499445863533765,1731709518.2035253
15011,76.06769514875486,89.94646388432011,74.04066937277094,65.86898796958849,1731709518.2035253
15012,-87.79602140979841,-95.62737191701308,-48.691627473104745,-45.71092720841989,1731709518.2192657
15013,11.561900713015348,34.31171214347705,15.9151442614384,4.048441702034324,1731709518.2192657
15014,109.9212695476599,133.53499786788598,103.3988840249367,83.45399756124243,1731709518.2195745
15015,-62.14404761372134,-59.09976904978976,-28.256814115215093,-23.85869176732376,1731709518.2195745
15016,-46.75435929605737,-35.6281569278799,-18.525594430509955,-26.600038434844464,1731709518.2336447
14995,-60.0085647390224,-63.92423999262974,-28.638283910695463,-21.09490570006892,1731709518.1293423
14994,109.0349132581614,126.1486954553984,94.81207372667268,78.29293562239036,1731709518.1293423
14993,17.800053839106113,39.78692567860708,27.74070792132989,8.536321648862213,1731709518.1133945
14992,-93.16277784621344,-99.7300421684049,-57.203639772254974,-50.88320884713903,1731709518.1133945
15069,-90.9524969724007,-87.88203910877928,-53.127148820552975,-55.83109648851678,1731709518.4895775
14971,67.06575595540926,78.03488252544776,66.89372055744752,60.68922653095797,1731709518.008808
14972,-81.63640618277714,-86.12054622964934,-43.42584833549336,-41.8887494537048,1731709518.0095108
14973,8.412904950324446,28.264293915126476,21.237021898385137,3.3303809105418622,1731709518.0095108
14974,121.54487860994412,141.9011540687643,107.26594057912008,89.05262779491022,1731709518.023347
14975,-50.21750665502623,-53.28048471873626,-23.92974986648187,-17.740215439815074,1731709518.023347
14976,-43.30991143686697,-33.35429775482044,-18.67145052878186,-29.360084602143612,1731709518.0391357
14977,120.1087570269592,147.38010750385,103.37644462520257,79.33636771002784,1731709518.0391357
14978,12.193943805526942,12.788587898481635,23.94096956634894,24.25512116262689,1731709518.0395565
14979,-87.87081940891221,-83.29318186314777,-47.67437468515709,-54.03594450978562,1731709518.0395565
15017,120.56502482155338,155.51812980743125,110.80014603724705,83.73822995787486,1731709518.2336447
14980,79.18677171180025,103.70929572125895,72.92991908593103,51.35443624155596,1731709518.0531857
14982,-93.9855558364652,-101.56259314669296,-56.45939968107268,-49.90335505874828,1731709518.0690255
14983,13.233635993208736,29.049672905821357,19.9542362135835,4.2429164997302,1731709518.0690255
14984,125.16510176705196,142.21904556499794,115.74429377866907,88.64497869974002,1731709518.069689
14985,-54.694166901987046,-60.18060013698414,-25.66880334587768,-17.291427445132285,1731709518.069689
14986,-45.23969981400296,-38.57519809296355,-23.08827237645164,-29.35634470218793,1731709518.0834603
14987,121.79545190697536,148.51703709037974,107.1051248810254,79.11571361264214,1731709518.0834603
14988,2.174751824233681,1.3070950345136223,14.565040377434345,17.84493263857439,1731709518.0993252
14989,-87.15275861741975,-89.31442079180852,-53.90130811138079,-50.91312804678455,1731709518.0993252
14990,78.1657790238969,104.82004600809888,74.11920727184042,48.310157677624375,1731709518.0994413
14991,79.33262781007215,89.17604449344799,72.52974979067221,69.87442082213238,1731709518.0994413
14981,81.07168128946796,90.74306257488206,73.93969207396731,68.20642544189468,1731709518.0531857
15018,7.395652162376791,15.619692164938895,25.90815694304183,30.571812187787145,1731709518.249192
14970,79.684178405907,103.17449002759533,71.79672939935699,47.038591692689806,1731709518.008808
15020,77.06250853696838,104.71906870929524,73.10943428380415,51.36565594142303,1731709518.2496195
15047,123.9309347816743,149.85218137456104,111.50324722891672,87.75862241024151,1731709518.3831236
15048,10.72042322298512,18.74624852789566,28.615844510961324,27.796806420665234,1731709518.3987565
15049,-88.92173129646108,-88.62627919996157,-52.69332042569295,-52.40534812910482,1731709518.3987565
15050,84.0598613540642,109.21442845603453,78.51732961973175,53.90504801133648,1731709518.3994265
15051,75.27109645819291,90.1371987820603,77.84414762770757,66.17191986599937,1731709518.3994265
15052,-90.06614068290219,-92.14552505826578,-48.01096568116918,-42.27395914914087,1731709518.4130917
15053,19.008041524793956,34.06113884644583,27.59485182305798,3.0685879136435688,1731709518.4130917
15054,124.36850307649,145.52511712582782,113.16376280924304,90.64208527607845,1731709518.4287205
15055,-51.42923424066976,-51.66110803792253,-20.0664332122542,-16.68556365231052,1731709518.4287205
15056,-50.06043085688725,-40.46384757058695,-26.93662943085656,-34.173335845116526,1731709518.429459
15057,124.36850307649,151.29204285750166,106.3646246897988,80.88842619163916,1731709518.429459
15058,18.35729893250391,19.023001124616712,27.59859172301367,29.8836705959402,1731709518.4431603
15059,-86.763809022028,-85.33890713891014,-52.07249703304842,-52.25575213087723,1731709518.4431603
15060,77.645932930056,100.94924955395982,72.34275479288772,50.92434774665162,1731709518.4587655
15061,66.60948816081509,76.56510184286162,68.5691957375966,54.48099260451272,1731709518.4587655
15062,-80.058168401476,-81.83836078038439,-40.17213537404314,-39.26707958476618,1731709518.459594
15063,19.89065791433677,34.53984604077414,25.298553250264376,7.608826459851116,1731709518.459594
15064,122.23302020179108,142.4172602626495,112.60277781588955,97.1756904986687,1731709518.4733143
15065,-40.05619847541675,-44.34586372459307,-13.93673718487844,-7.429311261978,1731709518.4733143
15066,-47.64071558555588,-41.39134275959805,-26.558899535331875,-34.68196223909035,1731709518.4888513
15019,-103.7766139204614,-102.85285863140598,-65.52117727370933,-60.99963822728023,1731709518.249192
15046,-53.27674481878057,-41.33150436030701,-23.836252367589623,-34.36407074285671,1731709518.3831236
15045,-57.59258936764672,-58.781877553556114,-27.89404381951317,-23.851211967412382,1731709518.3695924
15067,116.28283937228844,143.46817215019837,103.31660622591151,77.06624843692407,1731709518.4888513
15028,12.747448998969048,14.30698728049174,22.78160058008507,26.01661404175684,1731709518.2935052
15021,74.29498256975785,89.10498639428988,71.50127730285749,67.58560204925016,1731709518.2496195
15022,-99.84971896698698,-103.25676782662048,-63.50537119759247,-53.882608611602336,1731709518.2631104
15023,16.827679850626737,41.806471654679626,33.87788374861702,9.624632535967976,1731709518.2631104
15024,110.86372433649376,128.1532818316482,97.90871088998392,83.98880325490609,1731709518.2789023
15025,-62.25998451234773,-62.14404761372134,-26.29336663847789,-20.926610202062875,1731709518.2789023
15026,-49.933274258393794,-37.08671791059896,-17.239068845752627,-29.094551705289632,1731709518.2795143
15027,121.2643861132674,150.69365886459127,103.32408602582292,75.90313955070451,1731709518.2795143
15029,-85.37630613846704,-85.00979594280943,-48.16804147930816,-54.02098490996286,1731709518.2935052
15030,67.74641774734482,96.207056410145,72.81772208726034,45.97646010527387,1731709518.3093264
15031,63.55398989701644,78.65196601813659,64.46278558624908,59.83652934106067,1731709518.3093264
15032,-98.55945348227397,-104.31889941403642,-58.9726124512963,-55.74133888958022,1731709518.309496
15044,126.55260465061292,148.04580969596282,117.01585976360366,98.71652928041294,1731709518.3695924
15034,118.27246614871548,141.20927257696167,108.56742576370016,94.49418223043904,1731709518.3231716
15033,18.77990762749687,40.84905726602301,30.482054588850588,12.579153500963002,1731709518.309496
15042,-87.18267781706527,-92.44097715476528,-52.44274712866172,-47.33404378918931,1731709518.3688831
15041,81.71494408184662,91.6219390644692,74.4595381678082,63.4193534986116,1731709518.3536005
15040,80.9071256914176,107.66984977433458,74.19026537099853,54.09952280903235,1731709518.3536005
15039,-89.16482479358092,-91.99218916008248,-56.01435158634558,-57.596329267602414,1731709518.3395088
15043,13.727302787359804,34.206994944717735,23.57071947073564,9.02998844301328,1731709518.3688831
15037,119.65996903227642,141.14943417767063,99.15035767527296,80.99688329035416,1731709518.339249
15036,-48.261538978200406,-35.30652553169057,-20.892951102461662,-26.207348939497024,1731709518.339249
15035,-49.57424386264756,-50.77475174842402,-17.272727945353836,-12.915744496975094,1731709518.3231716
15038,12.324840303976089,11.04953441908583,21.640931093599647,22.459969183895737,1731709518.3395088
15305,-37.52054630545899,-39.77757592871785,-18.46388608124107,-11.582470162771642,1731709519.6895888
15297,121.51495941029862,155.28438606020063,110.9740513851866,85.62126958556473,1731709519.6299243
15298,22.175736787263304,31.14962673094124,34.07796839624643,31.946225421503183,1731709519.6433196
15299,-96.19583671027794,-92.3007309064269,-54.89799144957215,-56.27053473331034,1731709519.6433196
15300,70.34564821654931,97.27479784749448,69.04229308199137,45.23408996406943,1731709519.659336
15301,76.34444774547592,97.49919184483588,73.73212762642652,66.57769901119173,1731709519.659336
15302,-76.15745274769142,-77.93951507657766,-42.017776002176106,-38.30405534617603,1731709519.6595008
15303,10.331473627593368,24.14479411393404,18.55364368017763,2.995659864507616,1731709519.6595008
15304,120.38176972372456,144.71542878542095,104.46288556233048,88.20180055499077,1731709519.6895888
15272,-94.61011912906542,-99.33361277310178,-57.155021072831005,-47.27794528985396,1731709519.50894
15317,110.50095404079184,141.4018774246797,102.88464778102934,77.16535578574985,1731709519.7332304
15307,113.11888400977476,145.54194667562842,99.80297021754086,73.76204682607204,1731709519.6902685
15308,28.193235815968364,31.76671022363007,34.47813769150525,37.96372445020825,1731709519.6910496
15309,-93.6601845403202,-92.91781439911574,-57.14941122289747,-53.357152667827904,1731709519.6910496
15310,75.06914186058566,99.9002076163888,71.91079634800553,47.99413613136858,1731709519.7032058
15311,77.7207309291698,91.90430151112378,64.73766823299229,62.34039236139506,1731709519.7032058
15312,-84.30295485118404,-88.41871475242078,-47.99413613136858,-43.674551682546735,1731709519.718968
15313,7.489149661269039,27.503224274143577,19.597075767815117,3.889495953917504,1731709519.718968
15314,130.21396670723334,152.4383221939206,117.12618681229652,97.38325494620948,1731709519.719569
15315,-33.847964548971504,-33.9433319978416,-9.966833381913602,-8.115582903847098,1731709519.719569
15316,-58.389188058208674,-50.56344740092754,-26.392473987303678,-35.207418182864785,1731709519.7332304
15306,-54.80636390065774,-51.97712958417833,-34.77358978800476,-36.17979217134416,1731709519.6902685
15296,-48.6355289737694,-38.008603249676526,-25.464978798292577,-29.78082334715873,1731709519.6299243
15284,128.02612523315474,149.0312733342871,110.78705638740212,92.0052788099274,1731709519.5696237
15294,124.30492477724329,151.8997766003013,112.9075796622783,94.6007693791762,1731709519.6293926
15318,27.95388221880421,29.608787949196994,33.44966520369053,28.62145436089486,1731709519.7489588
15273,11.8386533097364,28.490557862445712,24.660900307819247,7.771512107923627,1731709519.509626
15274,127.6708347373642,143.78793359640986,108.17286631837489,93.32172359433024,1731709519.5231547
15275,-31.379630578216165,-40.2039245236665,-8.388595600612462,-7.281585213728249,1731709519.5231547
15276,-49.376029164996,-40.60783371888101,-24.87033470533788,-28.91690645739436,1731709519.5388348
15277,114.41662929439916,143.48126180004328,97.3421160466969,75.21686790883541,1731709519.5388348
15278,29.97342819487676,35.08774138428271,35.611327378079295,36.84549436345696,1731709519.5395255
15279,-96.85031920252368,-97.83204294089228,-62.31795296166092,-57.5084416186437,1731709519.5395255
15280,84.23563665198162,106.50861083809286,81.20070783793926,52.36981907952577,1731709519.5531757
15281,84.72182364622131,97.05788365006448,79.21108106151223,70.7738667614758,1731709519.5531757
15282,-87.56788751250133,-93.85278938803822,-47.73234313447029,-40.60035391896963,1731709519.5689268
15283,1.5389688317663968,16.05913040973246,10.262285478413103,-7.928587906062603,1731709519.5689268
15285,-40.91263556526974,-43.85780678037554,-14.709026525728405,-5.789365131407976,1731709519.5696237
15286,-53.77415151288733,-52.523154977709055,-33.77877639979124,-34.3509810930118,1731709519.5831668
15287,118.39962274720892,142.80060000810772,104.3806077633053,80.40036924742162,1731709519.5831668
15288,37.52428620541468,37.03622926119715,38.6481261420995,41.224917211569846,1731709519.5988
15289,-88.36822610301897,-91.59014991484582,-57.59071941766888,-55.84792603831738,1731709519.5988
15290,76.38184674503282,100.99973820336164,73.04024613462389,46.468256949447095,1731709519.5994952
15291,95.81062701484188,108.04196981992573,86.47396677546203,78.69871476758271,1731709519.5994952
15292,-83.45399756124243,-90.44574052840473,-52.01078868377954,-40.869626715779305,1731709519.613138
15293,-3.5659946077503264,19.178206972777843,7.737853008322418,-7.790211607702076,1731709519.613138
15295,-47.34526348905638,-48.21853012870997,-24.305609812028703,-16.279784507118165,1731709519.6293926
15319,-93.095459647011,-89.02083864528686,-50.077260406687856,-56.19199683424085,1731709519.7489588
15344,129.82875701179728,148.86671773623675,108.85352811031044,88.32895715348423,1731709519.869666
15321,91.10583287058398,106.39267393946648,86.35802987683564,76.26403989642859,1731709519.7496295
15349,-97.3252864968963,-92.96643309853972,-59.61774519365281,-56.13589833490551,1731709519.899416
15350,79.0558752133511,105.4165600510314,77.21397448517382,56.26679483335465,1731709519.8994915
15351,88.98156969575211,101.1979529010132,82.24787982553244,70.39239696599543,1731709519.8994915
15352,-86.01582903089002,-89.27515184227377,-50.90003839693964,-42.65355899464339,1731709519.9132855
15353,0.5404155435971916,21.025717550888658,13.983485934324564,-3.777298955246806,1731709519.9132855
15354,124.69387437263504,152.04937259852886,110.125094095245,93.44514029286802,1731709519.92941
15355,-37.12785681011155,-40.82848781626672,-10.87562907114625,-4.02413235232234,1731709519.92941
15356,-57.69730656640604,-52.36233927961439,-31.979884521104395,-38.15071944799274,1731709519.929483
15357,115.26184668438508,143.4064638009295,100.54721030872317,75.5534589048475,1731709519.929483
15358,26.843131931964308,34.66887258924544,38.89495953917504,36.77817616425455,1731709519.9432209
15359,-104.48345501208678,-99.47385902144016,-56.1396382348612,-59.415790596045554,1731709519.9432209
15360,66.0485031674616,93.8939282875508,64.67782983370125,40.67889181803912,1731709519.9592068
15361,80.80614839261398,99.9413465159014,78.28732577245682,70.65792986284941,1731709519.9592068
15362,-84.95369744347408,-85.45297408755869,-48.40552512649447,-46.15410535316914,1731709519.9596522
15363,5.458383985329419,21.575482844375077,17.65232779085636,0.7479799911379814,1731709519.9596522
15364,126.72837994853036,149.31924563087523,114.8672872390598,92.97391289845108,1731709519.9736283
15365,-33.55625235242769,-35.84694107528776,-12.786717948503792,-4.7309734439477324,1731709519.9736283
15366,-69.38823382789269,-57.07461322378367,-36.011496673338115,-37.85526735149324,1731709519.989247
15367,103.89629071904346,135.60129259340465,92.42788750492036,69.33400527853519,1731709519.989247
15368,33.66096955118701,37.15216615982354,43.13974598888308,39.76261632889509,1731709519.989664
15271,97.38138499623165,111.83235842501745,88.73473629867658,84.0972603536211,1731709519.50894
15348,28.32039241446182,32.65680641308427,38.453651344403625,36.55378216691315,1731709519.899416
15347,114.74574049049988,143.436383000575,104.41426686290652,72.91682943608612,1731709519.8836603
15346,-53.93122731102631,-52.73632927518338,-27.73509807139635,-34.16024619527161,1731709519.8836603
15345,-34.53984604077414,-40.57043471932411,-9.581623686477542,-11.129942268133163,1731709519.869666
15322,-87.13779901759699,-88.8188840476796,-43.80170828104019,-39.09691413678229,1731709519.7631714
15323,-0.3646402456797659,15.561723715625703,13.022331645712256,-5.740746431984007,1731709519.7631714
15324,122.13204290298744,141.97034221794456,107.60440152511,89.47336653992534,1731709519.778891
15325,-45.24717961391434,-44.19439777638763,-21.414667146280408,-8.788764895871282,1731709519.778891
15326,-53.934967210982,-48.27836852800101,-26.343855287879705,-33.988210797309875,1731709519.7798595
15327,114.23337419657037,141.15130412764847,101.96463239192964,77.41966898273677,1731709519.7798595
15328,40.53490566974506,45.21539046429098,52.8784454734996,46.01946895476431,1731709519.7931411
15329,-89.6547516877763,-92.854236099869,-52.84852627385408,-55.59361284133047,1731709519.7931411
15330,68.70009223604575,98.53888403251769,68.3279721904546,47.42193143814802,1731709519.8090408
15331,80.83980749221519,94.73914567753673,75.86387060116976,66.24484791513532,1731709519.8090408
15320,72.76162358792499,96.47071935702115,69.67059627454728,49.07496721856296,1731709519.7496295
15332,-67.17795295407996,-73.74334732629359,-35.11392068397254,-30.80929583497345,1731709519.8096824
15334,130.57673700293526,150.52723331656307,113.52840305492282,91.12640232034028,1731709519.8235967
15335,-33.65722965123132,-36.61362056620419,-8.717706796713173,-7.812651007436216,1731709519.8235967
15336,-65.25190447689965,-58.78748740348965,-40.43205842096359,-47.79218153376132,1731709519.8395145
15337,108.19343576813117,137.41514407191426,93.7518120892346,74.56612531654537,1731709519.8395145
15338,42.647949144709855,51.46102339029312,49.04878791887313,40.12164672464132,1731709519.8396063
15339,-88.31212760368362,-89.94833383429796,-49.733189610764384,-48.72341662272811,1731709519.8396063
15340,82.02909567812458,105.77933034673332,81.70933423191309,56.88761822599918,1731709519.8536427
15341,76.68103874148801,92.94399369880556,72.43064244184643,60.8070333795622,1731709519.8536427
15342,-86.59925342397764,-91.39941501710564,-52.160384682007134,-42.70217769406736,1731709519.8692477
15343,-1.0228626378811896,17.472812592983246,9.28243169002235,-1.8400307781994345,1731709519.8692477
15333,1.1126202368177474,18.44518658146262,11.25335896667093,-5.763185831718147,1731709519.8096824
15270,75.67126575345173,101.37559814890848,74.13416687166318,46.17467480292544,1731709519.4945693
15369,-98.1443245871924,-95.73769896570592,-57.2503885217011,-56.47996913082898,1731709519.989664
15268,16.68930355226621,19.93553671380505,29.52464020019397,32.243547467980534,1731709519.4940002
15196,-62.77983060618863,-53.80407071253285,-31.409549777861685,-40.01879947585985,1731709519.1335733
15197,120.21347422571851,149.59786817757413,110.78144653746858,80.93330499110743,1731709519.134372
15198,21.87654479080811,28.275513614993542,36.53321271715686,33.12242395756766,1731709519.134372
15199,-98.41733728395776,-101.93284324230626,-56.59029617952183,-57.83194296481088,1731709519.1479716
15200,68.36350124003366,101.11754505196586,72.04730269638821,42.99201994063333,1731709519.1479716
15201,86.14672552933916,101.61495174607262,81.29981518676504,76.4267255445011,1731709519.1637008
15202,-91.26290866872296,-97.27666779747231,-53.557237315457314,-44.05415152804926,1731709519.1637008
15203,14.366825679782778,34.162116145249456,28.79161980887875,7.84070025710389,1731709519.164362
15204,117.52822605753316,133.08994977315888,103.59709872258829,83.32684096274897,1731709519.164362
15205,-42.3711965479888,-47.061031092423946,-12.62403230043128,-8.63729894766584,1731709519.1779847
15206,-60.98841852741316,-49.51066556340084,-30.164163092616946,-38.00673329969868,1731709519.1779847
15207,120.5238859220408,147.7578373993747,109.97736804699524,90.1371987820603,1731709519.1936443
15208,9.08982684230432,15.92636396130547,23.47722197184339,24.11674486426637,1731709519.1936443
15209,-83.59611375955865,-86.18412452889606,-49.65652166167274,-47.62949588568881,1731709519.194362
15210,66.92363975709304,91.2853480684571,64.4927047858946,42.52827234612778,1731709519.194362
15211,86.68153122300282,100.15265086339788,79.22043081140146,68.4569987389259,1731709519.2079997
15212,-87.77358201006427,-91.67055776389316,-46.55240469845012,-41.8550903541036,1731709519.2079997
15213,7.578907260205597,27.385417425539345,19.606425517704334,2.5076029202900827,1731709519.2236357
15214,110.83380513684824,133.66215446637943,97.10837229946628,79.80385520448908,1731709519.2236357
15215,-39.06512498715893,-41.8887494537048,-11.939630608540028,-9.04494804283604,1731709519.224399
15216,-60.26287793600932,-55.35986909409985,-36.574351616669446,-41.9635474528186,1731709519.224399
15194,122.3751364001073,146.43765271501616,112.21008832054213,94.07531343540175,1731709519.1179783
15217,106.38706408953294,132.72343957750127,90.21947658108547,68.68513263622299,1731709519.2379715
15193,9.329180439468471,28.8103193086572,20.563839906360958,3.906325503718108,1731709519.1179783
15191,76.02281634928659,90.41395137878136,75.55532885482535,63.49041159776971,1731709519.1043627
15269,-87.85585980908945,-88.63375899987295,-46.73939969623461,-56.46313958102837,1731709519.4945693
15171,78.3153750221245,92.6541514522396,74.41465936833993,67.50332425022498,1731709519.0137832
15172,-97.53846079437062,-102.61724493419752,-59.514897944871336,-50.41946125263348,1731709519.0137832
15173,20.55636010644957,40.61718346877024,31.75736047374085,10.570827224757522,1731709519.0145247
15174,125.86072315881027,145.607394924853,107.76334727322684,91.805194162298,1731709519.0145247
15175,-47.102169991936535,-52.50258552795276,-23.94096956634894,-15.253181969281286,1731709519.0280464
15176,-58.83797605289146,-47.69307418493554,-34.10601764591411,-41.64565595658496,1731709519.0280464
15177,121.10357041517273,149.77364347549155,106.3309655901976,84.42263164976612,1731709519.0436845
15178,21.94012309005484,24.546833359170705,29.78269329713657,32.03785297041759,1731709519.0436845
15179,-86.14672552933916,-86.68527112295851,-55.546864091884345,-50.97670634603128,1731709519.0444002
15180,70.47280481504276,100.3994842604734,67.3836474516429,48.10446318006143,1731709519.0444002
15181,85.46980363735929,100.08907256415114,82.20861087599769,73.46846467955038,1731709519.074324
15182,-92.77382825082168,-97.18317029858008,-51.545171139296144,-43.76991913141683,1731709519.074324
15183,11.356206215452405,32.165009568911046,20.31700650928542,5.379846086259931,1731709519.0750957
15184,111.73138112621382,131.57903019106016,95.57501331763342,78.44253162061796,1731709519.0750957
15185,-42.01590605219826,-47.090950292069465,-10.896198520902544,-11.356206215452405,1731709519.0758145
15186,-58.14235466113314,-50.92434774665162,-33.32063865521923,-37.20639470918104,1731709519.0758145
15187,126.39178895251824,153.91745262639597,112.8458713130094,82.97529036691412,1731709519.0879724
15188,13.712343187537044,17.306387044955045,25.66880334587768,26.4018237371929,1731709519.0879724
15189,-103.57091942289844,-97.57211989397184,-60.89118112856522,-59.46253934549168,1731709519.1035628
15190,65.59597527282313,93.22635614546016,69.48921112669632,45.44539431156591,1731709519.1035628
15192,-93.45449004275724,-94.38198523176834,-52.86535582365468,-51.01410534558818,1731709519.1043627
15218,16.109619059134275,14.950250072870404,24.67398995766416,25.89693724317476,1731709519.2379715
15195,-46.52996529871598,-46.61598299769685,-17.695336640346795,-10.133258929941803,1731709519.1335733
15220,69.46677172696218,95.57875321758912,68.57293563755229,45.60994990961626,1731709519.253652
15246,-55.008318498265,-44.719853720162064,-26.110111540649086,-31.873297372367237,1731709519.374612
15247,113.5564523045905,142.35742186335847,103.7018159213476,79.63555970648304,1731709519.3884032
15248,22.923716778401285,29.737814497668296,32.0715120700188,38.07031159894541,1731709519.3884032
15249,-92.022108359728,-90.2830548803322,-56.37338198209181,-55.24019229551777,1731709519.404141
15250,70.52890331437811,94.67743732826784,66.15696026617661,42.68908804422245,1731709519.404141
15251,102.23203523876144,113.15254310937598,93.360992543865,80.85850699199364,1731709519.4046383
15252,-90.18207758152856,-95.38053851993756,-52.7120199254714,-48.91602147044614,1731709519.4046383
15253,0.039268949534744,18.996821824926883,15.645871464628726,-3.749249705579132,1731709519.418216
15254,122.03480550413953,147.11831450695172,112.67383591504768,87.14527881750837,1731709519.418216
15255,-35.444901830051094,-36.84736431343481,-5.716437082272023,-1.5950673311017454,1731709519.433992
15245,-34.263093444053084,-34.43512884201482,-5.002116190735251,-7.698584058787674,1731709519.374612
15256,-69.85572132235393,-62.342262311372906,-45.31075791316107,-44.686194620560855,1731709519.433992
15258,32.72973446222022,37.40086950687692,41.65313575649634,39.97018077643588,1731709519.4345608
15259,-90.26435538055377,-90.4737897780724,-53.130888720508665,-53.03365132166073,1731709519.4481528
15260,63.8644015933387,90.43639077851547,67.29388985270634,43.56048473389819,1731709519.4481528
15261,91.59201986482368,109.61459775129332,82.9491110672243,74.70263166492805,1731709519.4642975
15262,-98.94092327775434,-103.8439321196638,-60.356375434901565,-54.52213150402531,1731709519.4642975
15263,13.416891091037542,31.847118072677404,29.019753706175837,6.771088869776577,1731709519.4644113
15264,118.23880704911426,135.1543745486997,104.01596751762554,82.47788367280737,1731709519.4644113
15265,-41.57085795747116,-43.26503263739869,-12.182724105659872,-6.479376673232764,1731709519.4785445
15266,-64.18229308957234,-58.91277405200526,-37.3335513076745,-46.82915729517117,1731709519.4785445
15219,-94.8419929263182,-91.0983530706726,-55.58800299139693,-54.2304193074815,1731709519.253652
15257,120.76323951920494,148.37492089206353,108.02140037016945,75.21873785881326,1731709519.4345608
15244,108.83669856050984,132.57010367931798,96.23697560979052,83.52131576044485,1731709519.3741257
15267,115.23192748473956,143.44947265041992,106.02429379383102,79.07457471312955,1731709519.4940002
15227,123.08197749173269,150.4954441669397,110.65802983893082,80.43215839704499,1731709519.2844472
15221,88.47668320173398,102.1759367394261,89.67345118755475,77.07372823683545,1731709519.254421
15222,-88.30090790381655,-96.79048080323264,-51.99021923402324,-44.701154220383614,1731709519.254421
15223,3.337860710453242,24.77870715642348,17.03337434818968,-0.3945594453252852,1731709519.2682552
15224,113.05904561048374,143.58410904882476,104.15060391603038,85.0210156426765,1731709519.2682552
15225,-37.378430107142776,-39.84676407789812,-9.108526342082769,-8.341846851166338,1731709519.2837272
15226,-68.13910724269226,-62.05055011482909,-40.35165057191625,-49.506925663445145,1731709519.2837272
15243,8.2820084518753,27.21338202757761,18.559253530111164,3.2294036117382348,1731709519.3741257
15228,28.00998071813956,29.472281600814316,35.58327812841162,36.78378601418808,1731709519.2844472
15229,-100.2910271617584,-96.6184454052709,-57.31957667088136,-60.19181983685121,1731709519.298228
15231,85.94477093173191,101.45039614802226,83.10992676531896,71.92014609789476,1731709519.3140028
15230,61.44842622196302,87.44821071391925,59.91506724013016,36.64914961578325,1731709519.298228
15233,11.154251617845148,31.17767598060891,24.961962254252285,3.5285956081934278,1731709519.3145108
15234,117.45342805841938,141.05593667877838,107.12756428075954,88.24854930443689,1731709519.3145108
15235,-34.33789144316688,-36.54817231697962,-1.6399461305700245,-1.3407541341148317,1731709519.32839
15236,-57.72722576605156,-46.26069250190631,-26.644917234312743,-35.871250424999744,1731709519.32839
15237,109.84273164859042,141.93107326840982,96.12103871116416,72.78780288761482,1731709519.34402
15238,9.628372435923666,12.220123105216771,27.291919926647097,26.55141973542049,1731709519.34402
15239,-86.89096562052146,-86.172904829029,-50.12400915613398,-50.273605154361576,1731709519.3444736
15240,66.92737965704873,91.14323187014088,63.969118792098016,42.21786064980552,1731709519.3444736
15241,95.81062701484188,106.40950348926708,93.19269704585896,80.15914570027962,1731709519.358385
15242,-84.81906104506925,-88.38692560279742,-43.06307803979144,-38.90804918901995,1731709519.358385
15232,-98.2527816859074,-106.5478797876276,-58.51634465670213,-52.58860322693363,1731709519.3140028
